Data from Subt14__3__10-11-33-856.txt Node

Date: Mon Feb 19 10:11:33 CET 2024
User: Versuch 234
Spectrometer: USB4F03543
Trigger mode: 4
Integration Time (sec): 5,000000E-2
Scans to average: 10
Electric dark correction enabled: true
Nonlinearity correction enabled: false
Boxcar width: 0
XAxis mode: Wavelengths
Number of Pixels in Spectrum: 3648
>>>>>Begin Spectral Data<<<<<
179,969	31,37
180,181	31,37
180,394	31,37
180,606	87,69
180,819	73,15
181,031	-17,58
181,243	-20,24
181,456	8,84
181,668	-16,35
181,88	-3,65
182,093	22,36
182,305	25,63
182,518	14,17
182,73	-5,7
182,942	14,17
183,155	-16,14
183,367	-5,5
183,579	-22,08
183,791	-17,17
184,004	-2,01
184,216	24,61
184,428	20,51
184,641	30,14
184,853	6,59
185,065	0,44
185,277	-4,06
185,49	9,86
185,702	-6,11
185,914	29,73
186,126	-3,65
186,338	-12,66
186,551	30,34
186,763	33,01
186,975	14,57
187,187	9,05
187,399	31,78
187,612	14,37
187,824	-2,01
188,036	-5,29
188,248	-5,5
188,46	0,65
188,672	-2,01
188,885	17,44
189,097	4,13
189,309	-4,27
189,521	3,93
189,733	20,92
189,945	10,27
190,157	-3,04
190,369	25,84
190,581	13,35
190,794	-31,5
191,006	48,37
191,218	16,62
191,43	8,84
191,642	34,44
191,854	31,37
192,066	-8,16
192,278	-18,6
192,49	26,25
192,702	-4,88
192,914	-13,07
193,126	-10,21
193,338	10,07
193,55	4,54
193,762	-1,19
193,974	23,79
194,186	1,67
194,398	5,36
194,61	-16,76
194,822	27,27
195,034	4,95
195,246	-1,81
195,457	30,34
195,669	-13,28
195,881	-19,42
196,093	9,66
196,305	23,79
196,517	23,79
196,729	29,12
196,941	-12,66
197,153	-14,1
197,365	-26,38
197,576	35,67
197,788	20,31
198	-28,23
198,212	-17,58
198,424	4,54
198,636	-8,57
198,847	24,61
199,059	20,92
199,271	0,65
199,483	-5,9
199,695	15,6
199,906	-36,01
200,118	21,33
200,33	13,14
200,542	-99,7
200,753	12,73
200,965	38,13
201,177	13,76
201,389	-9,39
201,6	58,2
201,812	-31,91
202,024	26,04
202,235	32,6
202,447	24,2
202,659	-4,06
202,871	7,41
203,082	25,63
203,294	9,05
203,506	10,89
203,717	-10,82
203,929	-40,52
204,141	18,88
204,352	6,38
204,564	-0,58
204,775	9,66
204,987	-12,05
205,199	-10,41
205,41	-8,57
205,622	8,64
205,833	31,16
206,045	-30,48
206,257	31,16
206,468	27,27
206,68	6,59
206,891	2,08
207,103	6,38
207,314	43,66
207,526	25,63
207,737	30,55
207,949	10,27
208,16	-21,67
208,372	-8,57
208,583	13,76
208,795	37,51
209,006	16,01
209,218	-1,81
209,429	18,47
209,641	17,03
209,852	16,42
210,064	16,01
210,275	44,88
210,487	-8,57
210,698	1,47
210,909	-12,46
211,121	-5,9
211,332	1,67
211,544	1,26
211,755	-13,69
211,966	-5,7
212,178	17,44
212,389	-28,23
212,6	35,26
212,812	-19,83
213,023	-5,29
213,234	3,11
213,446	17,65
213,657	26,04
213,868	-10,21
214,08	-2,83
214,291	1,06
214,502	-8,77
214,714	-18,81
214,925	37,92
215,136	19,49
215,347	0,24
215,559	42,63
215,77	16,42
215,981	-4,47
216,192	18,06
216,404	6,79
216,615	1,47
216,826	15,19
217,037	2,49
217,249	2,49
217,46	-32,32
217,671	18,06
217,882	-10
218,093	40,79
218,304	-11,64
218,516	-0,58
218,727	-6,52
218,938	38,95
219,149	-20,86
219,36	1,06
219,571	20,92
219,782	17,85
219,993	-2,22
220,205	16,42
220,416	9,86
220,627	-1,6
220,838	-15,33
221,049	-22,29
221,26	-9,8
221,471	45,7
221,682	-7,95
221,893	-20,24
222,104	27,07
222,315	38,33
222,526	-4,88
222,737	22,97
222,948	31,98
223,159	17,65
223,37	6,18
223,581	30,55
223,792	5,15
224,003	-3,45
224,214	14,37
224,425	1,26
224,636	40,99
224,847	-5,29
225,058	22,97
225,269	21,74
225,48	-3,86
225,691	48,78
225,902	4,54
226,112	-12,05
226,323	18,47
226,534	-11,02
226,745	-5,29
226,956	29,52
227,167	10,07
227,378	-5,7
227,589	-0,58
227,799	-5,09
228,01	18,06
228,221	52,87
228,432	32,8
228,643	2,08
228,853	8,02
229,064	16,62
229,275	29,32
229,486	27,89
229,697	28,91
229,907	3,72
230,118	18,06
230,329	-7,13
230,54	8,64
230,75	18,26
230,961	-14,1
231,172	-10
231,383	42,63
231,593	16,83
231,804	-3,04
232,015	4,13
232,225	-19,83
232,436	34,64
232,647	-13,48
232,857	-16,76
233,068	13,35
233,279	-17,99
233,489	-0,79
233,7	4,74
233,91	25,63
234,121	7,2
234,332	13,96
234,542	16,01
234,753	22,56
234,964	-0,38
235,174	7
235,385	13,35
235,595	20,31
235,806	9,05
236,016	0,65
236,227	52,26
236,437	-3,86
236,648	37,72
236,858	4,74
237,069	10,89
237,279	40,58
237,49	38,13
237,7	0,03
237,911	6,18
238,121	2,49
238,332	21,13
238,542	-8,57
238,753	7,2
238,963	38,13
239,174	5,15
239,384	-8,57
239,595	16,83
239,805	58,61
240,015	21,13
240,226	2,49
240,436	12,32
240,647	-14,71
240,857	46,52
241,067	3,93
241,278	-49,32
241,488	30,34
241,698	4,33
241,909	16,01
242,119	19,9
242,329	-38,67
242,54	-1,19
242,75	-3,65
242,96	25,63
243,171	-1,81
243,381	-8,57
243,591	13,96
243,801	8,84
244,012	13,14
244,222	11,71
244,432	27,48
244,642	15,6
244,853	4,54
245,063	13,35
245,273	-2,42
245,483	14,37
245,694	0,65
245,904	3,31
246,114	-20,86
246,324	20,51
246,534	-5,5
246,744	22,15
246,955	50,21
247,165	-36,21
247,375	-30,89
247,585	32,8
247,795	-21,67
248,005	13,14
248,215	-7,13
248,425	-4,88
248,636	-21,26
248,846	20,1
249,056	40,38
249,266	23,59
249,476	-2,22
249,686	15,19
249,896	25,22
250,106	34,64
250,316	3,52
250,526	-1,81
250,736	36,28
250,946	4,74
251,156	-0,79
251,366	1,26
251,576	11,3
251,786	9,25
251,996	14,78
252,206	8,84
252,416	-6,93
252,626	17,03
252,836	45,09
253,046	6,18
253,256	-8,57
253,466	37,92
253,676	9,66
253,885	-22,9
254,095	13,76
254,305	15,19
254,515	-6,52
254,725	10,48
254,935	23,79
255,145	10,27
255,355	12,73
255,564	4,54
255,774	31,16
255,984	-3,45
256,194	8,02
256,404	-14,1
256,614	22,56
256,823	-13,89
257,033	-14,71
257,243	33,42
257,453	7,41
257,662	22,56
257,872	8,23
258,082	38,13
258,292	30,14
258,501	-24,13
258,711	-37,03
258,921	-23,93
259,131	45,7
259,34	-4,88
259,55	5,77
259,76	27,48
259,969	-8,57
260,179	16,01
260,389	11,09
260,598	-22,49
260,808	-15,53
261,018	17,65
261,227	9,45
261,437	32,6
261,647	-7,95
261,856	12,53
262,066	13,55
262,275	-39,29
262,485	15,39
262,694	-4,06
262,904	20,51
263,114	3,72
263,323	18,88
263,533	4,54
263,742	18,47
263,952	-5,09
264,161	26,66
264,371	-31,91
264,58	-0,38
264,79	40,58
264,999	25,22
265,209	5,56
265,418	3,72
265,628	18,06
265,837	45,7
266,047	14,98
266,256	-11,23
266,466	32,8
266,675	-27,61
266,884	23,38
267,094	-10,82
267,303	-6,72
267,513	33,01
267,722	-14,51
267,931	18,47
268,141	25,84
268,35	21,54
268,559	-10,82
268,769	39,15
268,978	15,19
269,187	4,74
269,397	5,77
269,606	37,1
269,815	35,05
270,025	2,08
270,234	20,31
270,443	7,82
270,653	-23,52
270,862	13,96
271,071	14,57
271,28	18,26
271,49	16,83
271,699	3,72
271,908	13,14
272,117	-1,4
272,327	24
272,536	0,24
272,745	-6,11
272,954	13,35
273,163	29,32
273,372	27,27
273,582	37,72
273,791	16,21
274	-24,95
274,209	0,65
274,418	22,15
274,627	-25,16
274,836	-0,79
275,046	14,17
275,255	20,51
275,464	24,61
275,673	15,39
275,882	-2,22
276,091	34,24
276,3	33,62
276,509	0,03
276,718	-4,27
276,927	14,57
277,136	1,88
277,345	15,39
277,554	0,03
277,763	-6,52
277,972	14,57
278,181	-6,93
278,39	12,32
278,599	6,18
278,808	18,26
279,017	-22,9
279,226	41,4
279,435	26,45
279,644	8,43
279,853	-44,2
280,062	-12,05
280,271	22,56
280,48	17,44
280,688	10,07
280,897	-10,62
281,106	8,43
281,315	37,92
281,524	13,35
281,733	54,71
281,942	15,6
282,151	9,86
282,359	-4,88
282,568	18,47
282,777	-11,43
282,986	22,97
283,195	2,7
283,403	28,09
283,612	21,13
283,821	23,38
284,03	-14,51
284,238	35,46
284,447	-7,54
284,656	20,72
284,865	-32,73
285,073	12,12
285,282	13,55
285,491	19,29
285,699	38,95
285,908	-7,95
286,117	12,12
286,325	-11,64
286,534	-6,72
286,743	9,45
286,951	-1,6
287,16	-15,74
287,369	17,65
287,577	-13,07
287,786	37,1
287,995	8,64
288,203	45,91
288,412	11,91
288,62	21,74
288,829	29,12
289,037	23,38
289,246	17,03
289,455	14,78
289,663	26,25
289,872	18,06
290,08	22,56
290,289	16,42
290,497	34,64
290,706	1,88
290,914	7,41
291,123	29,73
291,331	41,2
291,54	-27,41
291,748	-34,17
291,957	-1,4
292,165	-19,22
292,373	17,03
292,582	17,03
292,79	14,98
292,999	-30,28
293,207	5,56
293,415	22,15
293,624	51,44
293,832	1,88
294,041	-11,23
294,249	-0,79
294,457	42,84
294,666	20,31
294,874	18,67
295,082	-0,99
295,291	8,23
295,499	12,32
295,707	12,73
295,915	5,77
296,124	-13,48
296,332	43,45
296,54	23,59
296,749	6,38
296,957	7
297,165	26,45
297,373	-1,6
297,581	34,85
297,79	-10,82
297,998	25,02
298,206	26,25
298,414	18,88
298,622	4,95
298,831	10,89
299,039	8,64
299,247	-8,36
299,455	2,7
299,663	-33,35
299,871	28,71
300,08	12,12
300,288	12,53
300,496	11,5
300,704	33,42
300,912	34,24
301,12	-10
301,328	14,57
301,536	17,24
301,744	34,24
301,952	-9,8
302,16	43,25
302,368	24,2
302,576	1,88
302,784	21,33
302,992	44,48
303,2	27,07
303,408	8,02
303,616	-2,01
303,824	-4,06
304,032	-18,4
304,24	22,15
304,448	11,91
304,656	14,98
304,864	19,49
305,072	2,08
305,28	14,57
305,488	17,44
305,696	10,07
305,904	4,95
306,111	40,17
306,319	14,37
306,527	25,02
306,735	1,88
306,943	15,39
307,151	4,13
307,359	18,67
307,566	-6,93
307,774	-2,42
307,982	0,65
308,19	18,26
308,398	30,34
308,605	-6,72
308,813	30,14
309,021	8,02
309,229	12,12
309,436	17,65
309,644	3,93
309,852	22,77
310,06	3,93
310,267	21,95
310,475	19,08
310,683	-0,38
310,89	-3,86
311,098	12,73
311,306	21,33
311,513	17,24
311,721	40,79
311,929	44,27
312,136	62,09
312,344	30,55
312,552	51,23
312,759	120,05
312,967	78,88
313,174	55,94
313,382	59,02
313,589	29,73
313,797	-7,13
314,005	22,97
314,212	27,27
314,42	-10,41
314,627	45,7
314,835	31,16
315,042	35,67
315,25	43,45
315,457	30,96
315,665	60,65
315,872	4,13
316,08	-6,31
316,287	-2,83
316,495	-63,66
316,702	19,49
316,909	52,26
317,117	-5,9
317,324	7,2
317,532	-5,09
317,739	12,94
317,946	27,89
318,154	7
318,361	45,5
318,569	23,38
318,776	15,8
318,983	28,71
319,191	-7,75
319,398	40,17
319,605	1,06
319,813	14,17
320,02	20,51
320,227	29,12
320,434	38,95
320,642	7,82
320,849	22,56
321,056	13,14
321,264	-0,38
321,471	20,92
321,678	0,65
321,885	34,85
322,092	18,06
322,3	20,51
322,507	18,06
322,714	5,56
322,921	33,21
323,128	30,55
323,336	0,03
323,543	24,2
323,75	-8,98
323,957	19,08
324,164	1,47
324,371	2,08
324,578	46,11
324,786	9,25
324,993	27,27
325,2	52,05
325,407	31,37
325,614	18,26
325,821	1,67
326,028	-0,79
326,235	9,86
326,442	15,8
326,649	22,77
326,856	10,68
327,063	12,94
327,27	50,21
327,477	9,66
327,684	19,08
327,891	29,93
328,098	1,67
328,305	14,57
328,512	29,32
328,719	38,74
328,926	1,26
329,133	-1,19
329,34	17,24
329,546	4,13
329,753	22,77
329,96	17,24
330,167	10,27
330,374	33,01
330,581	-6,52
330,788	27,89
330,995	8,84
331,201	41,2
331,408	7,41
331,615	62,5
331,822	60,24
332,029	25,02
332,235	25,63
332,442	25,22
332,649	67,21
332,856	31,16
333,062	27,68
333,269	50,62
333,476	64,95
333,683	102,43
333,889	87,07
334,096	136,22
334,303	64,75
334,509	54,51
334,716	64,55
334,923	0,24
335,129	40,58
335,336	26,04
335,543	1,06
335,749	51,64
335,956	36,08
336,163	58,2
336,369	39,36
336,576	13,35
336,782	37,1
336,989	52,46
337,196	37,72
337,402	77,24
337,609	62,5
337,815	39,36
338,022	-6,52
338,228	46,11
338,435	12,73
338,641	35,87
338,848	-3,24
339,054	14,17
339,261	50
339,467	78,68
339,674	50,41
339,88	34,44
340,087	72,74
340,293	73,35
340,5	25,43
340,706	30,14
340,912	43,04
341,119	46,52
341,325	76,63
341,532	54,71
341,738	60,65
341,944	22,15
342,151	83,8
342,357	60,86
342,563	52,05
342,77	48,98
342,976	55,94
343,182	34,44
343,389	14,78
343,595	70,07
343,801	53,28
344,007	76,83
344,214	36,49
344,42	80,72
344,626	46,73
344,832	95,26
345,039	51,85
345,245	37,1
345,451	44,27
345,657	40,79
345,864	71,1
346,07	54,71
346,276	44,07
346,482	50,41
346,688	36,9
346,894	71,3
347,1	59,83
347,307	51,85
347,513	44,88
347,719	42,43
347,925	33,62
348,131	90,35
348,337	31,16
348,543	77,45
348,749	80,11
348,955	10,27
349,161	64,34
349,367	75,4
349,573	40,79
349,779	38,95
349,985	91,17
350,191	60,45
350,397	58,2
350,603	40,58
350,809	80,31
351,015	32,39
351,221	67,82
351,427	69,87
351,633	77,45
351,839	80,31
352,045	82,16
352,251	78,06
352,457	76,63
352,663	65,77
352,869	58,81
353,075	64,55
353,28	89,53
353,486	61,88
353,692	102,43
353,898	82,16
354,104	72,53
354,31	53,49
354,515	71,92
354,721	66,59
354,927	56,56
355,133	48,78
355,339	79,09
355,544	70,69
355,75	85,23
355,956	95,26
356,162	79,29
356,367	61,06
356,573	73,56
356,779	119,23
356,984	78,88
357,19	30,75
357,396	56,76
357,602	57,79
357,807	80,93
358,013	94,65
358,218	46,93
358,424	89,33
358,63	88,92
358,835	46,11
359,041	71,1
359,247	104,28
359,452	71,3
359,658	68,03
359,863	39,97
360,069	68,64
360,274	87,89
360,48	33,01
360,685	27,68
360,891	81,75
361,097	80,11
361,302	68,64
361,508	70,69
361,713	84,82
361,918	59,83
362,124	92,19
362,329	93,83
362,535	71,51
362,74	90,35
362,946	115,95
363,151	132,74
363,357	179,85
363,562	380,34
363,767	757,99
363,973	1522,08
364,178	2789,16
364,383	3828,51
364,589	4734,12
364,794	5081,86
365	4724,7
365,205	3709,52
365,41	2857,97
365,615	2205,29
365,821	1742,24
366,026	1382,21
366,231	1078,7
366,437	727,47
366,642	497,9
366,847	247,22
367,052	184,56
367,258	140,12
367,463	106,12
367,668	128,44
367,873	68,03
368,078	47,34
368,284	111,44
368,489	89,74
368,694	101
368,899	73,76
369,104	61,68
369,309	68,03
369,515	100,59
369,72	40,99
369,925	40,17
370,13	108,99
370,335	54,71
370,54	85,84
370,745	84
370,95	77,65
371,155	57,38
371,36	63,73
371,565	59,22
371,77	42,84
371,975	81,13
372,18	61,06
372,385	62,5
372,59	73,76
372,795	82,36
373	77,65
373,205	65,36
373,41	35,87
373,615	86,25
373,82	126,8
374,025	85,84
374,23	85,23
374,435	52,26
374,64	58,61
374,845	50,62
375,05	59,63
375,254	72,12
375,459	98,13
375,664	64,95
375,869	54,31
376,074	67,21
376,279	89,53
376,483	81,95
376,688	104,48
376,893	59,02
377,098	105,09
377,303	67,21
377,507	59,83
377,712	72,33
377,917	90,35
378,122	58,81
378,326	97,93
378,531	104,48
378,736	92,6
378,94	134,38
379,145	118,82
379,35	97,72
379,554	121,27
379,759	133,56
379,964	119,84
380,168	134,59
380,373	102,23
380,578	89,94
380,782	67,82
380,987	80,52
381,191	98,54
381,396	75,4
381,601	75,19
381,805	80,93
382,01	67,82
382,214	104,89
382,419	66,8
382,623	68,44
382,828	93,63
383,032	81,54
383,237	87,69
383,441	66,8
383,646	56,35
383,85	84,82
384,055	60,86
384,259	59,22
384,464	56,15
384,668	55,53
384,872	64,34
385,077	48,37
385,281	83,8
385,486	87,07
385,69	22,97
385,894	52,46
386,099	32,39
386,303	42,63
386,507	52,87
386,712	4,13
386,916	57,79
387,12	56,76
387,325	38,74
387,529	44,48
387,733	68,85
387,937	52,87
388,142	44,27
388,346	56,15
388,55	28,71
388,754	49,59
388,959	29,12
389,163	49,59
389,367	48,57
389,571	41,61
389,775	69,26
389,98	56,76
390,184	57,99
390,388	88,1
390,592	48,98
390,796	36,69
391	10,48
391,204	33,62
391,409	39,97
391,613	21,13
391,817	7,82
392,021	11,3
392,225	38,54
392,429	61,27
392,633	21,74
392,837	34,64
393,041	35,46
393,245	27,48
393,449	50,41
393,653	2,29
393,857	5,56
394,061	20,92
394,265	33,42
394,469	44,88
394,673	50
394,877	5,97
395,081	27,07
395,285	-10
395,489	32,39
395,693	25,22
395,896	28,5
396,1	31,37
396,304	17,65
396,508	43,66
396,712	7
396,916	43,86
397,12	24
397,323	18,88
397,527	45,5
397,731	-9,39
397,935	36,9
398,139	22,15
398,342	-1,4
398,546	-0,38
398,75	10,48
398,954	-13,28
399,157	16,21
399,361	-14,71
399,565	34,24
399,769	-31,09
399,972	15,6
400,176	28,71
400,38	3,31
400,583	2,7
400,787	16,83
400,991	18,26
401,194	-2,63
401,398	5,15
401,601	-1,81
401,805	25,63
402,009	34,44
402,212	-9,8
402,416	19,49
402,619	78,27
402,823	248,45
403,026	690,4
403,23	1625,71
403,433	3713,41
403,637	6250,23
403,841	8098,11
404,044	9460,83
404,247	9488,89
404,451	7760,81
404,654	4916,39
404,858	2884,6
405,061	1644,96
405,265	912,2
405,468	520,42
405,672	219,78
405,875	128,03
406,078	94,04
406,282	179,03
406,485	336,11
406,689	553,8
406,892	771,71
407,095	871,65
407,299	913,63
407,502	799,97
407,705	572,03
407,909	379,73
408,112	216,5
408,315	111,44
408,518	50,82
408,722	29,73
408,925	6,79
409,128	29,73
409,331	39,76
409,535	1,06
409,738	6,18
409,941	-24,34
410,144	43,25
410,347	26,66
410,551	30,96
410,754	31,16
410,957	30,96
411,16	37,31
411,363	38,33
411,566	20,51
411,769	33,83
411,973	11,71
412,176	-25,77
412,379	16,62
412,582	-2,63
412,785	5,15
412,988	30,75
413,191	35,05
413,394	34,64
413,597	34,24
413,8	61,06
414,003	4,33
414,206	17,85
414,409	15,8
414,612	28,91
414,815	15,19
415,018	17,24
415,221	26,86
415,424	-1,6
415,627	30,75
415,83	18,47
416,033	18,26
416,235	39,36
416,438	17,24
416,641	34,85
416,844	59,63
417,047	18,67
417,25	37,31
417,453	-7,13
417,655	9,25
417,858	-6,52
418,061	30,14
418,264	21,95
418,467	2,7
418,669	-13,69
418,872	-20,24
419,075	14,78
419,278	3,72
419,48	-23,93
419,683	0,03
419,886	13,96
420,089	10,48
420,291	-22,7
420,494	4,74
420,697	2,08
420,899	-5,7
421,102	-1,81
421,305	0,65
421,507	-8,98
421,71	-11,23
421,912	-20,04
422,115	5,97
422,318	-6,93
422,52	-15,12
422,723	10,48
422,925	-4,47
423,128	-36,83
423,33	24,61
423,533	-13,69
423,735	-22,08
423,938	-8,36
424,14	-13,89
424,343	-46,66
424,545	5,97
424,748	-27
424,95	-13,07
425,153	10,89
425,355	7,41
425,558	0,44
425,76	30,96
425,962	9,86
426,165	26,86
426,367	5,97
426,57	5,15
426,772	4,95
426,974	13,76
427,177	42,02
427,379	11,71
427,581	-21,88
427,784	28,71
427,986	-11,02
428,188	7,2
428,39	14,37
428,593	6,38
428,795	-11,84
428,997	-1,4
429,2	11,3
429,402	-12,05
429,604	-0,17
429,806	-7,13
430,008	-34,58
430,211	-28,64
430,413	40,58
430,615	-38,67
430,817	25,02
431,019	42,84
431,221	-2,83
431,423	-0,79
431,626	41,81
431,828	4,33
432,03	29,32
432,232	35,67
432,434	59,43
432,636	71,71
432,838	136,02
433,04	169,81
433,242	185,58
433,444	286,54
433,646	472,3
433,848	988,38
434,05	2226,59
434,252	5165,42
434,454	10815,97
434,656	18836,43
434,858	24597,57
435,06	26842,56
435,262	26761,87
435,464	23900,24
435,666	15395,64
435,868	8857,5
436,07	5492,69
436,271	3362,18
436,473	1852,83
436,675	1031,19
436,877	612,79
437,079	338,97
437,281	242,1
437,482	170,63
437,684	121,89
437,886	99,16
438,088	36,69
438,29	64,14
438,491	-0,58
438,693	7,82
438,895	-24,13
439,097	-22,7
439,298	22,77
439,5	0,44
439,702	43,04
439,903	10,89
440,105	-23,11
440,307	-56,9
440,508	-15,94
440,71	-5,09
440,912	0,24
441,113	27,27
441,315	-18,4
441,517	-27
441,718	-17,37
441,92	-3,24
442,121	-37,24
442,323	-20,45
442,524	-7,13
442,726	-24,34
442,928	-7,54
443,129	-7,34
443,331	20,92
443,532	-45,43
443,734	-2,42
443,935	-11,02
444,136	2,7
444,338	8,23
444,539	-2,42
444,741	-8,57
444,942	-8,36
445,144	-3,45
445,345	-30,07
445,546	3,31
445,748	-6,93
445,949	6,18
446,151	5,77
446,352	2,29
446,553	-69,6
446,755	-9,8
446,956	-2,63
447,157	-17,37
447,359	0,85
447,56	-3,86
447,761	20,92
447,962	-49,53
448,164	-41,95
448,365	-26,79
448,566	-28,64
448,767	-19,83
448,969	-34,99
449,17	-10,62
449,371	-37,24
449,572	-12,87
449,773	-31,91
449,974	-55,67
450,176	-13,69
450,377	-30,69
450,578	-15,33
450,779	-30,28
450,98	7,61
451,181	-27
451,382	-25,36
451,583	-33,14
451,784	-43,38
451,986	-16,76
452,187	-8,36
452,388	-10,41
452,589	-1,81
452,79	-18,4
452,991	-30,69
453,192	-34,17
453,393	-26,38
453,594	-28,23
453,795	-12,05
453,995	-35,6
454,196	-27,61
454,397	8,23
454,598	-31,71
454,799	-24,34
455	-44,61
455,201	3,52
455,402	-23,31
455,603	10,27
455,804	-19,42
456,004	-15,94
456,205	-47,89
456,406	-3,45
456,607	-15,33
456,808	-45,23
457,008	-2,63
457,209	-14,3
457,41	-30,28
457,611	-44,41
457,811	-63,25
458,012	-12,66
458,213	-15,94
458,414	-4,68
458,614	-48,5
458,815	-37,65
459,016	-65,5
459,216	-38,67
459,417	-38,47
459,618	-24,95
459,818	-12,46
460,019	-20,24
460,22	-28,64
460,42	-41,95
460,621	-43,59
460,821	-30,89
461,022	-37,85
461,223	-13,69
461,423	-19,63
461,624	-56,9
461,824	-34,58
462,025	-29,87
462,225	1,67
462,426	-23,72
462,626	5,15
462,827	-47,27
463,027	-24,54
463,228	-47,48
463,428	-22,08
463,628	-22,08
463,829	-8,98
464,029	27,68
464,23	19,69
464,43	-5,9
464,63	6,18
464,831	22,56
465,031	-18,4
465,231	-7,75
465,432	-32,12
465,632	-74,31
465,832	26,45
466,033	18,67
466,233	39,97
466,433	8,64
466,634	17,03
466,834	-22,49
467,034	8,23
467,234	-2,83
467,435	4,13
467,635	8,84
467,835	6,59
468,035	-28,84
468,235	-35,6
468,436	-31,09
468,636	-14,92
468,836	-9,59
469,036	-55,67
469,236	-75,95
469,436	-1,6
469,636	-10
469,836	-8,98
470,037	-25,16
470,237	-35,4
470,437	4,33
470,637	-17,58
470,837	-0,38
471,037	-8,16
471,237	-7,54
471,437	-0,17
471,637	-33,14
471,837	16,21
472,037	21,95
