Data from Subt14__1__10-05-29-873.txt Node

Date: Mon Feb 19 10:05:29 CET 2024
User: Versuch 234
Spectrometer: USB4F03543
Trigger mode: 4
Integration Time (sec): 1,000000E-1
Scans to average: 10
Electric dark correction enabled: true
Nonlinearity correction enabled: false
Boxcar width: 0
XAxis mode: Wavelengths
Number of Pixels in Spectrum: 3648
>>>>>Begin Spectral Data<<<<<
179,969	-19,18
180,181	-19,18
180,394	-19,18
180,606	18,91
180,819	18,7
181,031	-16,52
181,243	-18,16
181,456	0,27
181,668	0,68
181,88	5,8
182,093	31,4
182,305	7,85
182,518	-4,23
182,73	0,68
182,942	2,53
183,155	-10,99
183,367	0,68
183,579	-7,51
183,791	-7,3
184,004	0,89
184,216	14,2
184,428	5,19
184,641	11,13
184,853	3,55
185,065	-20,21
185,277	0,89
185,49	25,46
185,702	-26,96
185,914	13,18
186,126	-2,59
186,338	-31,88
186,551	9,49
186,763	26,9
186,975	6,83
187,187	3,35
187,399	19,32
187,612	2,94
187,824	10,72
188,036	-43,96
188,248	2,32
188,46	2,12
188,672	-12,83
188,885	-12,63
189,097	10,51
189,309	-18,36
189,521	1,91
189,733	19,32
189,945	5,39
190,157	-12,01
190,369	-10,38
190,581	-6,49
190,794	2,12
191,006	-0,75
191,218	3,75
191,43	12,15
191,642	14,61
191,854	8,06
192,066	-3,21
192,278	-4,85
192,49	18,5
192,702	4,98
192,914	-22,46
193,126	4,16
193,338	11,33
193,55	-1,37
193,762	19,32
193,974	-17,95
194,186	9,08
194,398	-12,63
194,61	5,6
194,822	46,35
195,034	11,74
195,246	7,85
195,457	6,83
195,669	10,92
195,881	1,3
196,093	-1,77
196,305	12,56
196,517	3,55
196,729	9,69
196,941	-6,08
197,153	-27,99
197,365	-5,05
197,576	23,62
197,788	3,14
198	-15,91
198,212	12,15
198,424	21,37
198,636	5,39
198,847	6,83
199,059	10,92
199,271	-26,35
199,483	-8,94
199,695	4,37
199,906	-19,59
200,118	17,48
200,33	3,14
200,542	27,31
200,753	-15,91
200,965	-1,16
201,177	9,49
201,389	-4,03
201,6	2,73
201,812	-20,82
202,024	21,37
202,235	-16,73
202,447	-3,21
202,659	-3,62
202,871	3,35
203,082	-25,53
203,294	10,1
203,506	1,71
203,717	-38,43
203,929	-19,18
204,141	-16,52
204,352	14,81
204,564	8,26
204,775	6,42
204,987	-6,89
205,199	-9,97
205,41	-4,44
205,622	-10,79
205,833	38,37
206,045	-18,36
206,257	6,01
206,468	7,65
206,68	-2,8
206,891	-18,57
207,103	13,99
207,314	29,97
207,526	20,34
207,737	16,45
207,949	-0,14
208,16	-6,08
208,372	8,26
208,583	-16,52
208,795	3,35
209,006	-13,04
209,218	9,9
209,429	20,55
209,641	23,01
209,852	2,12
210,064	-17,54
210,275	38,37
210,487	-4,64
210,698	0,68
210,909	-8,33
211,121	-21,64
211,332	11,95
211,544	-14,68
211,755	25,67
211,966	21,98
212,178	18,3
212,389	8,06
212,6	17,68
212,812	7,24
213,023	5,6
213,234	16,04
213,446	31,61
213,657	9,28
213,868	4,37
214,08	11,95
214,291	0,68
214,502	-2,39
214,714	-40,07
214,925	5,19
215,136	1,3
215,347	-17,54
215,559	2,94
215,77	-0,55
215,981	-9,15
216,192	0,48
216,404	-6,28
216,615	1,3
216,826	-13,24
217,037	-18,16
217,249	5,6
217,46	-9,76
217,671	-26,35
217,882	-8,74
218,093	-1,77
218,304	5,6
218,516	-12,83
218,727	-27,37
218,938	8,67
219,149	12,56
219,36	-14,06
219,571	11,13
219,782	20,55
219,993	5,8
220,205	-2,59
220,416	21,57
220,627	3,75
220,838	8,26
221,049	-15,7
221,26	20,34
221,471	17,07
221,682	-5,87
221,893	-14,27
222,104	-7,92
222,315	-12,83
222,526	-17,54
222,737	26,49
222,948	12,97
223,159	5,8
223,37	-6,69
223,581	-6,49
223,792	-15,5
224,003	5,8
224,214	-1,98
224,425	11,95
224,636	4,16
224,847	-4,64
225,058	11,13
225,269	11,13
225,48	-20
225,691	0,89
225,902	-8,12
226,112	-6,89
226,323	-16,11
226,534	-16,52
226,745	-18,16
226,956	9,49
227,167	-42,32
227,378	-5,46
227,589	6,83
227,799	6,62
228,01	-4,64
228,221	15,02
228,432	5,8
228,643	-13,45
228,853	-7,92
229,064	11,74
229,275	-1,98
229,486	-14,47
229,697	17,68
229,907	-14,06
230,118	-2,59
230,329	-16,93
230,54	13,99
230,75	19,93
230,961	7,03
231,172	1,5
231,383	1,5
231,593	14,81
231,804	-12,22
232,015	-18,36
232,225	-26,35
232,436	-2,59
232,647	-12,01
232,857	0,48
233,068	13,79
233,279	10,51
233,489	-17,13
233,7	1,71
233,91	14,2
234,121	2,53
234,332	-0,55
234,542	12,15
234,753	10,31
234,964	8,67
235,174	15,84
235,385	17,07
235,595	-16,11
235,806	6,42
236,016	29,97
236,227	9,08
236,437	12,15
236,648	16,66
236,858	13,79
237,069	-5,46
237,279	32,02
237,49	13,79
237,7	14,61
237,911	-0,14
238,121	-0,96
238,332	10,51
238,542	13,99
238,753	30,58
238,963	3,96
239,174	14,81
239,384	-41,92
239,595	3,55
239,805	23,21
240,015	11,13
240,226	10,72
240,436	-3
240,647	-4,03
240,857	12,15
241,067	5,39
241,278	-14,88
241,488	-12,22
241,698	-2,8
241,909	14,81
242,119	8,67
242,329	8,67
242,54	-11,81
242,75	-12,42
242,96	3,96
243,171	8,26
243,381	18,5
243,591	-1,37
243,801	11,54
244,012	36,32
244,222	-7,3
244,432	-7,92
244,642	17,07
244,853	-15,09
245,063	2,32
245,273	-5,46
245,483	14,4
245,694	-21,44
245,904	30,38
246,114	13,58
246,324	-4,03
246,534	-8,94
246,744	3,14
246,955	18,91
247,165	-14,68
247,375	11,33
247,585	16,45
247,795	-19,59
248,005	35,5
248,215	-19,18
248,425	-13,86
248,636	20,75
248,846	-13,45
249,056	5,39
249,266	11,33
249,476	-17,34
249,686	-15,91
249,896	17,27
250,106	-25,74
250,316	-3
250,526	19,73
250,736	-14,88
250,946	7,65
251,156	9,08
251,366	11,74
251,576	8,26
251,786	-16,52
251,996	5,19
252,206	-14,47
252,416	-5,87
252,626	12,56
252,836	25,05
253,046	-5,05
253,256	14,61
253,466	24,03
253,676	-12,63
253,885	-30,86
254,095	5,39
254,305	8,46
254,515	-1,98
254,725	25,87
254,935	1,09
255,145	-10,99
255,355	18,5
255,564	-8,12
255,774	-13,65
255,984	-31,68
256,194	-16,32
256,404	10,1
256,614	-3,82
256,823	-11,2
257,033	-5,26
257,243	30,58
257,453	12,56
257,662	10,51
257,872	0,48
258,082	22,19
258,292	27,92
258,501	1,5
258,711	10,72
258,921	-9,56
259,131	26,49
259,34	-5,26
259,55	7,44
259,76	-4,85
259,969	10,1
260,179	2,32
260,389	27,92
260,598	-10,58
260,808	-6,49
261,018	-0,96
261,227	1,71
261,437	9,49
261,647	-9,56
261,856	-9,76
262,066	3,75
262,275	-3,82
262,485	19,73
262,694	-2,18
262,904	2,32
263,114	2,12
263,323	-19,18
263,533	0,89
263,742	-1,16
263,952	-16,32
264,161	-19,59
264,371	-16,11
264,58	-23,48
264,79	6,42
264,999	14,81
265,209	25,05
265,418	4,37
265,628	-8,94
265,837	25,05
266,047	7,44
266,256	9,9
266,466	-0,14
266,675	-28,6
266,884	27,51
267,094	-0,14
267,303	-10,38
267,513	33,25
267,722	-8,33
267,931	-1,16
268,141	26,08
268,35	28,74
268,559	-10,17
268,769	45,94
268,978	11,74
269,187	13,99
269,397	15,43
269,606	-5,46
269,815	7,44
270,025	7,03
270,234	16,66
270,443	-15,5
270,653	-7,51
270,862	5,39
271,071	-13,65
271,28	13,79
271,49	22,19
271,699	-13,24
271,908	53,93
272,117	22,6
272,327	40,21
272,536	-24,3
272,745	-10,38
272,954	7,24
273,163	17,89
273,372	18,91
273,582	15,63
273,791	1,09
274	-12,63
274,209	-0,34
274,418	20,75
274,627	-10,99
274,836	-8,74
275,046	4,57
275,255	13,79
275,464	4,37
275,673	19,11
275,882	-6,08
276,091	10,51
276,3	24,85
276,509	2,73
276,718	-2,18
276,927	8,06
277,136	-31,88
277,345	-8,94
277,554	25,67
277,763	6,83
277,972	-4,03
278,181	-13,24
278,39	-10,38
278,599	41,03
278,808	3,96
279,017	-9,56
279,226	7,03
279,435	13,99
279,644	-15,91
279,853	-33,72
280,062	-25,33
280,271	-4,44
280,48	1,71
280,688	-7,51
280,897	-10,99
281,106	6,21
281,315	48,4
281,524	1,5
281,733	32,84
281,942	29,76
282,151	18,3
282,359	23,21
282,568	-8,33
282,777	-15,09
282,986	8,67
283,195	14,2
283,403	4,78
283,612	5,39
283,821	-11,4
284,03	-17,75
284,238	14,81
284,447	6,01
284,656	6,21
284,865	-36,8
285,073	-19,18
285,282	7,44
285,491	-10,79
285,699	9,28
285,908	-20,41
286,117	9,9
286,325	-8,12
286,534	-6,49
286,743	3,75
286,951	-4,64
287,16	-1,57
287,369	3,14
287,577	3,55
287,786	20,34
287,995	1,09
288,203	-10,99
288,412	20,34
288,62	8,67
288,829	4,98
289,037	3,35
289,246	16,86
289,455	9,9
289,663	45,53
289,872	27,51
290,08	12,15
290,289	11,33
290,497	-4,64
290,706	20,34
290,914	1,5
291,123	-4,03
291,331	11,74
291,54	10,72
291,748	-18,77
291,957	-19,59
292,165	6,42
292,373	-14,27
292,582	1,09
292,79	20,55
292,999	-2,8
293,207	7,24
293,415	1,5
293,624	-0,75
293,832	12,15
294,041	-21,64
294,249	-7,71
294,457	5,8
294,666	9,49
294,874	-27,99
295,082	-3,41
295,291	6,83
295,499	13,18
295,707	17,27
295,915	12,97
296,124	18,7
296,332	4,98
296,54	24,23
296,749	18,7
296,957	-5,87
297,165	9,28
297,373	21,57
297,581	3,96
297,79	-32,7
297,998	13,18
298,206	-14,68
298,414	6,21
298,622	-7,1
298,831	16,25
299,039	-20,82
299,247	5,19
299,455	-7,71
299,663	-25,12
299,871	-22,25
300,08	4,16
300,288	14,2
300,496	-10,58
300,704	3,14
300,912	13,58
301,12	-23,07
301,328	12,36
301,536	34,88
301,744	-6,08
301,952	21,37
302,16	8,87
302,368	-0,14
302,576	-17,54
302,784	-6,08
302,992	16,86
303,2	19,93
303,408	-12,22
303,616	3,96
303,824	2,32
304,032	-8,33
304,24	36,11
304,448	19,93
304,656	-19,59
304,864	23,01
305,072	-3,62
305,28	10,31
305,488	9,28
305,696	-6,69
305,904	-15,09
306,111	10,31
306,319	-8,12
306,527	7,44
306,735	17,68
306,943	9,9
307,151	-5,67
307,359	15,43
307,566	-4,03
307,774	-0,96
307,982	17,07
308,19	22,39
308,398	5,19
308,605	-14,06
308,813	14,81
309,021	-18,77
309,229	4,16
309,436	-19,59
309,644	19,52
309,852	10,92
310,06	19,32
310,267	-6,89
310,475	15,22
310,683	-18,36
310,89	19,32
311,098	17,07
311,306	22,39
311,513	-15,5
311,721	-5,05
311,929	-5,87
312,136	7,03
312,344	-22,66
312,552	-3
312,759	19,52
312,967	-6,49
313,174	4,98
313,382	-19,39
313,589	24,03
313,797	-23,07
314,005	7,24
314,212	19,52
314,42	-31,88
314,627	-3,62
314,835	11,95
315,042	3,14
315,25	-11,4
315,457	5,6
315,665	7,44
315,872	15,22
316,08	-4,23
316,287	-28,4
316,495	41,03
316,702	-19,18
316,909	4,78
317,117	-4,23
317,324	-20,62
317,532	17,48
317,739	-4,85
317,946	12,97
318,154	-0,75
318,361	-10,99
318,569	10,92
318,776	8,26
318,983	-9,76
319,191	-6,89
319,398	9,28
319,605	-0,96
319,813	19,32
320,02	-3,82
320,227	16,86
320,434	16,25
320,642	8,06
320,849	30,17
321,056	0,89
321,264	-33,72
321,471	1,09
321,678	-12,63
321,885	21,98
322,092	28,54
322,3	7,65
322,507	3,96
322,714	-35,36
322,921	3,75
323,128	-5,87
323,336	-27,78
323,543	18,3
323,75	17,68
323,957	-12,63
324,164	-25,53
324,371	6,21
324,578	2,32
324,786	-3,62
324,993	-17,75
325,2	10,72
325,407	-18,16
325,614	12,77
325,821	15,43
326,028	-0,14
326,235	-8,53
326,442	16,66
326,649	-8,94
326,856	-0,75
327,063	18,09
327,27	16,66
327,477	-31,06
327,684	-2,59
327,891	9,08
328,098	-12,01
328,305	7,65
328,512	8,46
328,719	12,36
328,926	-12,22
329,133	-15,7
329,34	12,36
329,546	-10,17
329,753	-1,77
329,96	4,16
330,167	0,07
330,374	11,95
330,581	11,74
330,788	-18,98
330,995	2,94
331,201	7,44
331,408	-8,94
331,615	14,2
331,822	9,69
332,029	5,8
332,235	10,72
332,442	-7,92
332,649	7,85
332,856	-6,08
333,062	3,14
333,269	-15,7
333,476	-18,77
333,683	13,99
333,889	-4,03
334,096	19,73
334,303	-13,04
334,509	-29,83
334,716	19,73
334,923	-6,69
335,129	12,77
335,336	25,26
335,543	-12,63
335,749	-5,87
335,956	19,73
336,163	-25,12
336,369	3,75
336,576	3,55
336,782	-5,05
336,989	4,16
337,196	0,68
337,402	19,52
337,609	-13,04
337,815	3,75
338,022	-9,97
338,228	2,53
338,435	12,97
338,641	14,61
338,848	-32,9
339,054	-6,49
339,261	-15,29
339,467	2,73
339,674	17,27
339,88	-0,55
340,087	26,08
340,293	-18,57
340,5	-12,01
340,706	-16,32
340,912	-22,05
341,119	-1,37
341,325	-2,8
341,532	6,21
341,738	-13,04
341,944	7,44
342,151	24,64
342,357	-14,27
342,563	9,49
342,77	-18,57
342,976	-0,75
343,182	12,36
343,389	-29,42
343,595	24,85
343,801	7,24
344,007	0,89
344,214	-28,19
344,42	17,89
344,626	18,91
344,832	18,3
345,039	18,91
345,245	-6,08
345,451	-13,24
345,657	-5,05
345,864	13,38
346,07	-3,41
346,276	-3,82
346,482	-4,23
346,688	-21,23
346,894	0,48
347,1	-3,21
347,307	9,28
347,513	-8,94
347,719	8,46
347,925	10,72
348,131	12,15
348,337	-14,68
348,543	12,56
348,749	14,2
348,955	-25,12
349,161	-3,82
349,367	12,15
349,573	-16,11
349,779	23,62
349,985	5,6
350,191	-0,14
350,397	-4,85
350,603	-7,3
350,809	3,14
351,015	-21,23
351,221	10,72
351,427	-6,28
351,633	25,67
351,839	-9,15
352,045	5,19
352,251	22,6
352,457	-7,92
352,663	9,9
352,869	-14,06
353,075	7,03
353,28	-3,82
353,486	-13,24
353,692	5,39
353,898	4,37
354,104	-7,71
354,31	-21,85
354,515	12,15
354,721	17,27
354,927	-9,15
355,133	20,14
355,339	-18,57
355,544	7,85
355,75	18,09
355,956	-6,49
356,162	5,6
356,367	-12,42
356,573	18,91
356,779	27,31
356,984	8,06
357,19	-6,89
357,396	-21,64
357,602	-23,48
357,807	-16,32
358,013	9,69
358,218	-29,01
358,424	19,32
358,63	4,16
358,835	-34,13
359,041	-14,88
359,247	19,52
359,452	-10,99
359,658	-14,68
359,863	3,55
360,069	-19,59
360,274	-8,33
360,48	-27,17
360,685	-20,82
360,891	26,69
361,097	0,48
361,302	-20
361,508	17,27
361,713	-7,51
361,918	6,62
362,124	2,94
362,329	4,98
362,535	-33,72
362,74	-2,18
362,946	-1,77
363,151	9,28
363,357	-5,67
363,562	-12,01
363,767	-2,39
363,973	-3,41
364,178	-6,49
364,383	-18,36
364,589	3,14
364,794	-0,75
365	42,67
365,205	39,39
365,41	-8,53
365,615	4,98
365,821	-11,61
366,026	7,03
366,231	4,78
366,437	15,43
366,642	11,33
366,847	17,27
367,052	6,42
367,258	3,14
367,463	-28,81
367,668	-7,1
367,873	27,51
368,078	1,71
368,284	9,9
368,489	-6,89
368,694	15,02
368,899	14,81
369,104	-12,83
369,309	-15,5
369,515	9,49
369,72	-16,11
369,925	-14,27
370,13	-7,3
370,335	-9,56
370,54	-5,46
370,745	25,87
370,95	29,76
371,155	1,09
371,36	-13,65
371,565	-8,94
371,77	-21,64
371,975	-20,82
372,18	-22,25
372,385	11,54
372,59	-3,82
372,795	-7,3
373	27,31
373,205	13,58
373,41	-24,92
373,615	-10,38
373,82	4,98
374,025	8,87
374,23	-9,35
374,435	-17,34
374,64	-28,19
374,845	19,32
375,05	-12,22
375,254	3,55
375,459	-16,11
375,664	1,91
375,869	-8,74
376,074	-7,51
376,279	-20,82
376,483	-19,18
376,688	9,69
376,893	-2,8
377,098	-7,71
377,303	2,32
377,507	-26,96
377,712	12,77
377,917	31,4
378,122	-38,02
378,326	2,12
378,531	6,62
378,736	-13,45
378,94	12,15
379,145	20,34
379,35	-0,75
379,554	2,12
379,759	7,85
379,964	11,74
380,168	-0,34
380,373	-27,37
380,578	5,39
380,782	0,68
380,987	-5,05
381,191	-10,38
381,396	6,62
381,601	-17,75
381,805	2,32
382,01	-13,45
382,214	21,16
382,419	-0,96
382,623	15,43
382,828	-3,21
383,032	-7,92
383,237	2,73
383,441	-12,22
383,646	-24,71
383,85	-12,01
384,055	-23,28
384,259	-2,18
384,464	-29,42
384,668	9,9
384,872	10,72
385,077	5,6
385,281	1,5
385,486	23,21
385,69	4,37
385,894	11,95
386,099	-28,19
386,303	-20,82
386,507	9,49
386,712	-12,63
386,916	-7,51
387,12	2,12
387,325	4,37
387,529	21,57
387,733	31,4
387,937	6,42
388,142	-0,34
388,346	11,74
388,55	-4,64
388,754	23,21
388,959	-5,87
389,163	-17,75
389,367	15,63
389,571	0,07
389,775	35,29
389,98	16,86
390,184	19,73
390,388	24,44
390,592	12,15
390,796	-3,41
391	-17,75
391,204	-1,98
391,409	-10,99
391,613	-17,34
391,817	6,01
392,021	44,92
392,225	-16,11
392,429	42,05
392,633	-9,35
392,837	17,27
393,041	7,03
393,245	-4,85
393,449	12,97
393,653	0,07
393,857	0,68
394,061	22,8
394,265	8,06
394,469	26,49
394,673	31,2
394,877	39,8
395,081	18,5
395,285	-7,3
395,489	15,84
395,693	4,16
395,896	23,62
396,1	-12,83
396,304	12,36
396,508	7,85
396,712	9,49
396,916	25,05
397,12	16,86
397,323	30,99
397,527	35,7
397,731	7,24
397,935	35,29
398,139	39,39
398,342	30,38
398,546	33,45
398,75	38,57
398,954	-8,94
399,157	55,77
399,361	16,66
399,565	42,05
399,769	17,27
399,972	25,05
400,176	80,76
400,38	21,78
400,583	43,08
400,787	50,45
400,991	44,71
401,194	31,4
401,398	41,64
401,601	20,96
401,805	66,22
402,009	42,46
402,212	18,91
402,416	50,65
402,619	17,27
402,823	55,98
403,026	36,32
403,23	18,91
403,433	44,51
403,637	51,68
403,841	57,21
404,044	62,12
404,247	47,38
404,451	50,65
404,654	36,32
404,858	57,21
405,061	33,86
405,265	55,57
405,468	52,09
405,672	14,81
405,875	53,73
406,078	58,03
406,282	50,65
406,485	58,44
406,689	25,46
406,892	68,27
407,095	62,33
407,299	94,48
407,502	58,84
407,705	57
407,909	85,47
408,112	80,14
408,315	72,98
408,518	48,81
408,722	46,56
408,925	48,61
409,128	56,8
409,331	77,48
409,535	50,04
409,738	52,29
409,941	66,01
410,144	66,01
410,347	70,11
410,551	82,81
410,754	60,69
410,957	59,87
411,16	73,18
411,363	93,46
411,566	80,96
411,769	73,39
411,973	60,28
412,176	65,4
412,379	66,42
412,582	59,66
412,785	84,24
412,988	60,28
413,191	75,02
413,394	89,36
413,597	79,53
413,8	106,15
414,003	95,71
414,206	66,42
414,409	74,82
414,612	63,96
414,815	77,69
415,018	65,6
415,221	105,54
415,424	89,97
415,627	77,28
415,83	80,96
416,033	88,54
416,235	83,01
416,438	70,31
416,641	93,25
416,844	93,46
417,047	67,45
417,25	81,58
417,453	72,98
417,655	70,52
417,858	62,94
418,061	84,24
418,264	86,9
418,467	78,71
418,669	64,17
418,872	72,98
419,075	63,96
419,278	85,67
419,48	94,27
419,683	66,01
419,886	76,05
420,089	97,96
420,291	103,9
420,494	66,63
420,697	96,32
420,899	98,99
421,102	50,24
421,305	108
421,507	53,32
421,71	116,19
421,912	72,57
422,115	85,88
422,318	72,57
422,52	69,49
422,723	72,36
422,925	105,13
423,128	80,35
423,33	90,59
423,533	82,6
423,735	82,81
423,938	75,64
424,14	84,85
424,343	91
424,545	91
424,748	67,24
424,95	87,93
425,153	91,61
425,355	98,78
425,558	75,23
425,76	98,99
425,962	93,46
426,165	96,12
426,367	95,71
426,57	81,37
426,772	68,06
426,974	102,47
427,177	71,95
427,379	88,54
427,581	88,75
427,784	97,96
427,986	61,92
428,188	108,2
428,39	74,61
428,593	67,45
428,795	58,03
428,997	73,39
429,2	51,06
429,402	14,81
429,604	41,03
429,806	65,19
430,008	61,3
430,211	46,76
430,413	103,29
430,615	48,4
430,817	91,61
431,019	108
431,221	87,31
431,423	84,44
431,626	88,34
431,828	53,73
432,03	87,11
432,232	103,08
432,434	108,82
432,636	81,99
432,838	111,89
433,04	92,23
433,242	73,39
433,444	93,87
433,646	96,73
433,848	93,25
434,05	91
434,252	92,43
434,454	95,71
434,656	59,87
434,858	95,09
435,06	100,01
435,262	102,47
435,464	106,56
435,666	105,54
435,868	129,09
436,07	112,91
436,271	93,25
436,473	100,83
436,675	114,55
436,877	120,28
437,079	91,61
437,281	113,53
437,482	111,68
437,684	110,45
437,886	107,59
438,088	75,84
438,29	120,69
438,491	80,55
438,693	105,54
438,895	60,89
439,097	97,96
439,298	67,65
439,5	81,78
439,702	106,15
439,903	108,82
440,105	70,31
440,307	68,47
440,508	105,54
440,71	116,39
440,912	117,01
441,113	137,08
441,315	101,24
441,517	99,19
441,718	108,41
441,92	120,28
442,121	124,38
442,323	86,9
442,524	139,13
442,726	131,96
442,928	101,85
443,129	124,38
443,331	128,68
443,532	104,31
443,734	102,88
443,935	115,16
444,136	103,29
444,338	121,51
444,539	116,39
444,741	106,77
444,942	91
445,144	100,42
445,345	128,27
445,546	130,73
445,748	85,26
445,949	125,2
446,151	112,5
446,352	130,93
446,553	116,39
446,755	98,58
446,956	122,33
447,157	110,86
447,359	132,98
447,56	135,44
447,761	162,88
447,962	83,83
448,164	124,38
448,365	89,77
448,566	96,12
448,767	115,57
448,969	166,98
449,17	123,36
449,371	132,78
449,572	151,62
449,773	130,93
449,974	78,1
450,176	137,9
450,377	111,07
450,578	134,42
450,779	117,01
450,98	133,8
451,181	138,72
451,382	111,68
451,583	154,69
451,784	98,58
451,986	113,94
452,187	99,6
452,388	85,88
452,589	134,01
452,79	117,83
452,991	117,42
453,192	128,68
453,393	113,53
453,594	129,91
453,795	129,5
453,995	118,65
454,196	100,62
454,397	131,14
454,598	118,03
454,799	97,76
455	117,21
455,201	120,28
455,402	123,36
455,603	133,8
455,804	145,06
456,004	113,94
456,205	102,47
456,406	139,33
456,607	155,1
456,808	109,84
457,008	135,64
457,209	151,41
457,41	139,33
457,611	105,74
457,811	142,2
458,012	141,79
458,213	121,51
458,414	143,02
458,614	143,63
458,815	117,01
459,016	114,96
459,216	121,72
459,417	120,69
459,618	153,87
459,818	139,13
460,019	125,81
460,22	155,71
460,42	151,21
460,621	145,47
460,821	137,69
461,022	125,61
461,223	144,65
461,423	151,41
461,624	146,09
461,824	139,33
462,025	165,95
462,225	149,77
462,426	160,01
462,626	133,19
462,827	106,77
463,027	156,12
463,228	111,68
463,428	138,92
463,628	122,95
463,829	159,81
464,029	152,85
464,23	151,62
464,43	123,97
464,63	140,15
464,831	171,89
465,031	135,03
465,231	151,21
465,432	133,19
465,632	130,52
465,832	138,31
466,033	141,58
466,233	136,26
466,433	150,8
466,634	146,7
466,834	156,74
467,034	154,69
467,234	177,63
467,435	166,57
467,635	161,65
467,835	149,16
468,035	134,21
468,235	143,43
468,436	151,41
468,636	156,53
468,836	148,34
469,036	133,19
469,236	150,39
469,436	177,63
469,636	146,91
469,836	162,06
470,037	171,28
470,237	165,13
470,437	175,99
470,637	170,46
470,837	175,58
471,037	171,69
471,237	182,54
471,437	187,46
471,637	161,45
471,837	196,67
472,037	178,24
