Data from USB4F035431__0__09-40-24-118.txt Node

Date: Mon Feb 19 09:40:24 CET 2024
User: Versuch 234
Spectrometer: USB4F03543
Trigger mode: 4
Integration Time (sec): 1,000000E-1
Scans to average: 10
Electric dark correction enabled: true
Nonlinearity correction enabled: false
Boxcar width: 0
XAxis mode: Wavelengths
Number of Pixels in Spectrum: 3648
>>>>>Begin Spectral Data<<<<<
179,969	-97,33
180,181	-97,33
180,394	-97,33
180,606	-101,84
180,819	-116,38
181,031	7,53
181,243	44,59
181,456	-33,84
181,668	25,55
181,88	18,79
182,093	-10,29
182,305	-34,25
182,518	-14,39
182,73	45
182,942	-5,79
183,155	-36,51
183,367	-6,4
183,579	10,6
183,791	45,21
184,004	22,68
184,216	20,02
184,428	15,72
184,641	15,51
184,853	2,41
185,065	12,65
185,277	43,16
185,49	57,09
185,702	9,37
185,914	5,89
186,126	35,38
186,338	39,68
186,551	17,36
186,763	31,9
186,975	4,04
187,187	33,54
187,399	29,23
187,612	33,74
187,824	9,16
188,036	21,66
188,248	25,75
188,46	46,85
188,672	23,71
188,885	33,54
189,097	61,59
189,309	-3,12
189,521	37,22
189,733	48,9
189,945	42,55
190,157	38,25
190,369	13,47
190,581	3,43
190,794	46,03
191,006	21,45
191,218	3,64
191,43	36,4
191,642	4,66
191,854	22,68
192,066	45,41
192,278	38,45
192,49	20,43
192,702	23,91
192,914	46,44
193,126	27,6
193,338	18,59
193,55	45,41
193,762	52,99
193,974	6,09
194,186	25,34
194,398	21,04
194,61	26,98
194,822	47,87
195,034	70,81
195,246	66,51
195,457	15,31
195,669	60,77
195,881	27,6
196,093	33,13
196,305	27,19
196,517	-4,56
196,729	61,59
196,941	21,04
197,153	57,7
197,365	62,62
197,576	27,6
197,788	26,78
198	37,02
198,212	88,83
198,424	67,94
198,636	6,5
198,847	15,72
199,059	33,54
199,271	18,99
199,483	57,09
199,695	10,39
199,906	60,98
200,118	19,81
200,33	58,11
200,542	234,24
200,753	33,33
200,965	22,89
201,177	38,45
201,389	44,8
201,6	1,18
201,812	44,39
202,024	14,28
202,235	8,14
202,447	71,42
202,659	45,62
202,871	34,76
203,082	29,85
203,294	1,59
203,506	40,09
203,717	32,31
203,929	52,79
204,141	9,78
204,352	73,68
204,564	29,03
204,775	31,69
204,987	78,18
205,199	37,43
205,41	50,94
205,622	55,45
205,833	9,57
206,045	31,69
206,257	26,57
206,468	23,5
206,68	0,36
206,891	9,37
207,103	23,71
207,314	2,82
207,526	22,68
207,737	21,04
207,949	43,78
208,16	43,57
208,372	43,57
208,583	28,62
208,795	32,51
209,006	6,91
209,218	39,68
209,429	-4,56
209,641	22,89
209,852	8,76
210,064	40,7
210,275	24,32
210,487	56,47
210,698	54,02
210,909	41,93
211,121	53,2
211,332	47,46
211,544	48,69
211,755	84,94
211,966	77,77
212,178	44,39
212,389	93,75
212,6	46,64
212,812	78,18
213,023	35,58
213,234	44,18
213,446	49,3
213,657	-5,99
213,868	50,12
214,08	85,96
214,291	57,29
214,502	46,44
214,714	8,76
214,925	26,78
215,136	24,11
215,347	26,16
215,559	7,12
215,77	-2,3
215,981	59,54
216,192	-13,77
216,404	20,43
216,615	50,53
216,826	34,76
217,037	50,53
217,249	47,46
217,46	79,61
217,671	43,16
217,882	29,03
218,093	34,56
218,304	47,46
218,516	45,62
218,727	-0,87
218,938	-5,99
219,149	71,83
219,36	64,46
219,571	66,3
219,782	16,95
219,993	71,63
220,205	17,15
220,416	71,83
220,627	26,98
220,838	71,83
221,049	116,48
221,26	64,26
221,471	20,43
221,682	37,02
221,893	75,52
222,104	4,45
222,315	14,28
222,526	10,6
222,737	44,18
222,948	20,63
223,159	62,82
223,37	48,28
223,581	29,23
223,792	17,97
224,003	28,83
224,214	11,21
224,425	48,28
224,636	13,47
224,847	47,87
225,058	40,5
225,269	36,81
225,48	30,26
225,691	11,21
225,902	56,47
226,112	38,86
226,323	5,68
226,534	52,58
226,745	20,63
226,956	7,32
227,167	40,5
227,378	37,43
227,589	16,74
227,799	73,68
228,01	17,15
228,221	-2,51
228,432	18,18
228,643	16,33
228,853	48,08
229,064	37,43
229,275	48,69
229,486	-0,46
229,697	18,38
229,907	47,26
230,118	15,92
230,329	31,49
230,54	3,43
230,75	44,18
230,961	52,79
231,172	32,1
231,383	-0,05
231,593	24,52
231,804	-0,26
232,015	43,57
232,225	66,3
232,436	45
232,647	47,26
232,857	67,74
233,068	23,09
233,279	66,92
233,489	37,84
233,7	26,57
233,91	21,04
234,121	11,83
234,332	39,88
234,542	58,73
234,753	19,4
234,964	68,15
235,174	12,24
235,385	70,19
235,595	37,63
235,806	66,1
236,016	29,44
236,227	24,52
236,437	16,33
236,648	34,35
236,858	62,21
237,069	16,95
237,279	45,62
237,49	28,21
237,7	37,22
237,911	29,64
238,121	18,38
238,332	26,16
238,542	69,78
238,753	17,36
238,963	31,28
239,174	61,39
239,384	28,83
239,595	38,04
239,805	29,64
240,015	48,28
240,226	14,69
240,436	61,59
240,647	50,33
240,857	13,87
241,067	39,47
241,278	125,49
241,488	32,51
241,698	79,41
241,909	20,22
242,119	63,03
242,329	36,61
242,54	46,64
242,75	30,46
242,96	-1,28
243,171	31,69
243,381	69,99
243,591	31,08
243,801	69,58
244,012	92,31
244,222	28,42
244,432	-7,83
244,642	54,02
244,853	11,83
245,063	33,33
245,273	46,03
245,483	38,86
245,694	39,68
245,904	45,21
246,114	62
246,324	27,19
246,534	46,85
246,744	30,67
246,955	1,79
247,165	82,07
247,375	73,88
247,585	45,21
247,795	43,57
248,005	51,56
248,215	74,09
248,425	57,29
248,636	126,92
248,846	6,91
249,056	41,52
249,266	16,13
249,476	31,28
249,686	46,23
249,896	43,37
250,106	36,4
250,316	38,04
250,526	82,28
250,736	13,06
250,946	96,82
251,156	81,05
251,366	51,56
251,576	59,75
251,786	59,14
251,996	27,6
252,206	39,47
252,416	47,05
252,626	10,8
252,836	3,64
253,046	42,55
253,256	80,02
253,466	33,95
253,676	43,37
253,885	55,65
254,095	28,01
254,305	53,2
254,515	46,64
254,725	37,02
254,935	26,57
255,145	56,68
255,355	58,52
255,564	47,05
255,774	32,92
255,984	68,56
256,194	49,3
256,404	37,02
256,614	69,37
256,823	91,08
257,033	26,16
257,243	48,49
257,453	31,9
257,662	48,49
257,872	69,37
258,082	40,29
258,292	5,68
258,501	122,21
258,711	114,84
258,921	98,05
259,131	-3,74
259,34	43,57
259,55	44,18
259,76	41,11
259,969	54,02
260,179	22,89
260,389	53,81
260,598	89,65
260,808	55,86
261,018	50,33
261,227	60,77
261,437	21,25
261,647	75,11
261,856	36,61
262,066	73,68
262,275	89,85
262,485	40,91
262,694	59,75
262,904	57,7
263,114	72,24
263,323	32,51
263,533	45,21
263,742	38,45
263,952	42,55
264,161	41,73
264,371	42,75
264,58	40,5
264,79	26,16
264,999	40,29
265,209	66,51
265,418	76,54
265,628	36,2
265,837	49,1
266,047	56,88
266,256	90,06
266,466	21,66
266,675	40,29
266,884	44,39
267,094	37,63
267,303	92,11
267,513	66,51
267,722	90,06
267,931	71,22
268,141	30,46
268,35	52,58
268,559	80,43
268,769	42,34
268,978	6,09
269,187	55,45
269,397	59,14
269,606	6,5
269,815	41,11
270,025	50,53
270,234	59,75
270,443	30,67
270,653	50,12
270,862	54,42
271,071	63,23
271,28	18,59
271,49	78,39
271,699	39,88
271,908	77,77
272,117	52,38
272,327	41,93
272,536	50,12
272,745	40,09
272,954	36,81
273,163	48,9
273,372	61,39
273,582	11,42
273,791	43,16
274	42,75
274,209	32,31
274,418	77,36
274,627	85,96
274,836	41,32
275,046	58,52
275,255	63,23
275,464	52,58
275,673	34,35
275,882	75,52
276,091	45,21
276,3	65,89
276,509	63,23
276,718	51,35
276,927	58,11
277,136	79
277,345	61,39
277,554	61,59
277,763	76,34
277,972	50,12
278,181	78,18
278,39	39,07
278,599	62,82
278,808	17,97
279,017	88,22
279,226	12,85
279,435	52,99
279,644	38,04
279,853	71,83
280,062	117,5
280,271	27,19
280,48	22,68
280,688	22,68
280,897	90,88
281,106	3,02
281,315	32,1
281,524	56,68
281,733	70,19
281,942	56,06
282,151	56,88
282,359	76,34
282,568	13,87
282,777	60,36
282,986	72,86
283,195	69,78
283,403	76,13
283,612	67,12
283,821	62,41
284,03	7,94
284,238	49,3
284,447	71,22
284,656	52,38
284,865	77,16
285,073	33,33
285,282	52,38
285,491	54,83
285,699	29,44
285,908	36,61
286,117	29,23
286,325	47,67
286,534	107,47
286,743	57,5
286,951	43,16
287,16	66,3
287,369	47,46
287,577	63,64
287,786	18,59
287,995	63,64
288,203	35,58
288,412	76,34
288,62	46,23
288,829	32,92
289,037	66,71
289,246	51,97
289,455	45,82
289,663	81,25
289,872	94,36
290,08	64,46
290,289	96,2
290,497	17,56
290,706	66,71
290,914	15,72
291,123	16,74
291,331	34,56
291,54	113,61
291,748	107,06
291,957	88,42
292,165	65,48
292,373	32,31
292,582	45,41
292,79	60,36
292,999	65,48
293,207	67,74
293,415	37,22
293,624	29,64
293,832	61,18
294,041	53,61
294,249	43,37
294,457	61,39
294,666	51,76
294,874	38,04
295,082	77,16
295,291	76,34
295,499	54,63
295,707	83,92
295,915	62,21
296,124	87,4
296,332	81,87
296,54	66,51
296,749	73,47
296,957	103,37
297,165	69,78
297,373	38,45
297,581	70,6
297,79	58,93
297,998	34,15
298,206	42,96
298,414	48,9
298,622	78,59
298,831	109,52
299,039	47,05
299,247	76,95
299,455	64,46
299,663	91,9
299,871	73,27
300,08	51,35
300,288	66,92
300,496	51,97
300,704	87,4
300,912	73,68
301,12	64,26
301,328	49,1
301,536	83,3
301,744	49,3
301,952	97,43
302,16	53,61
302,368	66,1
302,576	83,3
302,784	114,84
302,992	43,57
303,2	75,52
303,408	56,06
303,616	81,87
303,824	120,57
304,032	109,11
304,24	125,08
304,448	87,81
304,656	71,83
304,864	140,44
305,072	111,77
305,28	123,24
305,488	96,61
305,696	134,91
305,904	130,81
306,111	88,01
306,319	108,9
306,527	138,6
306,735	142,69
306,943	160,3
307,151	166,65
307,359	151,09
307,566	224,82
307,774	206,38
307,982	203,72
308,19	172,18
308,398	159,9
308,605	212,94
308,813	158,46
309,021	225,84
309,229	227,27
309,436	208,43
309,644	274,99
309,852	274,99
310,06	337,25
310,267	309,4
310,475	359,98
310,683	402,99
310,89	417,73
311,098	453,78
311,306	413,43
311,513	464,02
311,721	452,14
311,929	501,29
312,136	511,94
312,344	572,36
312,552	636,66
312,759	582,6
312,967	671,07
313,174	633,39
313,382	671,68
313,589	707,73
313,797	749,91
314,005	766,09
314,212	799,68
314,42	754,63
314,627	821,39
314,835	853,13
315,042	902,08
315,25	859,07
315,457	860,1
315,665	876,27
315,872	975,19
316,08	1013,28
316,287	1043,59
316,495	1307,17
316,702	1231,6
316,909	1269,69
317,117	1386,83
317,324	1400,55
317,532	1475,92
317,739	1404,04
317,946	1421,65
318,154	1444,59
318,361	1481,65
318,569	1570,95
318,776	1606,17
318,983	1693,21
319,191	1760,79
319,398	1741,95
319,605	1789,46
319,813	1881,42
320,02	1945,72
320,227	2129,43
320,434	2215,03
320,642	2252,92
320,849	2281,8
321,056	2271,97
321,264	2297,56
321,471	2310,47
321,678	2285,89
321,885	2194,76
322,092	2243,29
322,3	2183,29
322,507	2109,77
322,714	2139,46
322,921	2270,94
323,128	2315,38
323,336	2472,26
323,543	2675,62
323,75	2737,88
323,957	2799,11
324,164	2945,95
324,371	2895,37
324,578	2904,99
324,786	3014,76
324,993	3138,87
325,2	3257,24
325,407	3422,51
325,614	3531,26
325,821	3930,82
326,028	4051,85
326,235	4169,2
326,442	4196,65
326,649	4226,96
326,856	4158,14
327,063	4158,76
327,27	3992,46
327,477	4033,22
327,684	3838,66
327,891	3924,68
328,098	3913,62
328,305	4149,95
328,512	4153,43
328,719	4605,63
328,926	4657,64
329,133	4934,94
329,34	5046,55
329,546	5092,63
329,753	5067,65
329,96	5073,18
330,167	4799,16
330,374	4713,96
330,581	4647,2
330,788	4470,66
330,995	4611,16
331,201	4622,83
331,408	4598,46
331,615	4757,79
331,822	4676,69
332,029	4860,19
332,235	4852,82
332,442	4852,61
332,649	4806,94
332,856	4843,19
333,062	4687,95
333,269	4721,34
333,476	4645,36
333,683	4750,42
333,889	4794,24
334,096	4960,33
334,303	4941,08
334,509	5106,56
334,716	5143,01
334,923	5209,78
335,129	5080,34
335,336	5097,55
335,543	4842,17
335,749	4815,95
335,956	4635,53
336,163	4487,66
336,369	4425,81
336,576	4526,57
336,782	4399,19
336,989	4547,46
337,196	4578,18
337,402	4811,65
337,609	4815,95
337,815	4958,7
338,022	5068,26
338,228	5150,59
338,435	5252,99
338,641	5346,99
338,848	5336,34
339,054	5478,27
339,261	5558,96
339,467	5602,58
339,674	5735,69
339,88	5713,58
340,087	5765,8
340,293	5674,46
340,5	5609,95
340,706	5577,59
340,912	5441,2
341,119	5477,86
341,325	5470,07
341,532	5669,34
341,738	5550,56
341,944	5935,58
342,151	5883,35
342,357	5911,82
342,563	5918,99
342,77	5949,71
342,976	5736,51
343,182	5794,88
343,389	5420,31
343,595	5273,26
343,801	4953,17
344,007	4922,04
344,214	4899,92
344,42	5129,29
344,626	5322,41
344,832	5492,4
345,039	5520,25
345,245	5616,3
345,451	5679,38
345,657	5784,44
345,864	5558,55
346,07	5700,06
346,276	5727,09
346,482	5994,56
346,688	5841,78
346,894	5736,31
347,1	5751,46
347,307	5813,11
347,513	5675,08
347,719	5779,93
347,925	5682,24
348,131	5774,2
348,337	5815,57
348,543	5785,26
348,749	5522,91
348,955	5850,18
349,161	5709,48
349,367	5996,61
349,573	6308,51
349,779	6315,88
349,985	6496,52
350,191	6702,54
350,397	6612,64
350,603	6532,76
350,809	6300,32
351,015	6582,94
351,221	6198,33
351,427	6385,92
351,633	6248,1
351,839	6269,81
352,045	6115,59
352,251	6101,67
352,457	6161,47
352,663	6479,31
352,869	6330,63
353,075	6757,02
353,28	6705,82
353,486	7112,54
353,692	7096,16
353,898	7070,77
354,104	7216,38
354,31	7198,76
354,515	7298,91
354,721	7304,44
354,927	7078,75
355,133	7093,91
355,339	6880,92
355,544	6960,79
355,75	6509,62
355,956	6499,59
356,162	6203,25
356,367	5994,76
356,573	5750,44
356,779	5685,31
356,984	5620,19
357,19	5581,69
357,396	5350,47
357,602	5420,51
357,807	5106,56
358,013	5059,87
358,218	5023,62
358,424	5384,88
358,63	5635,34
358,835	6240,52
359,041	6386,74
359,247	6822,14
359,452	7055,82
359,658	7078,14
359,863	6860,03
360,069	6770,74
360,274	6571,27
360,48	6573,52
360,685	6354,8
360,891	6300,32
361,097	6241,75
361,302	6407,43
361,508	6626,36
361,713	6477,06
361,918	6894,23
362,124	7069,54
362,329	7196,72
362,535	7243,2
362,74	7128,93
362,946	7302,8
363,151	7305,67
363,357	7294,81
363,562	7406,63
363,767	7428,34
363,973	7507,39
364,178	7375,91
364,383	7478,11
364,589	7828,92
364,794	7912,07
365	8321,26
365,205	8543,26
365,41	8825,47
365,615	8942,81
365,821	9013,47
366,026	9028,21
366,231	8916,6
366,437	9064,67
366,642	9000,36
366,847	8905,75
367,052	8837,75
367,258	8720,2
367,463	8685,18
367,668	8393,55
367,873	8520,73
368,078	8459,49
368,284	8499,22
368,489	8578,48
368,694	8795,36
368,899	9055,25
369,104	9272,33
369,309	9226,87
369,515	9176,49
369,72	8989,1
369,925	8772,01
370,13	8791,26
370,335	8817,68
370,54	8814,41
370,745	8960,22
370,95	8712,83
371,155	8864,17
371,36	8434,92
371,565	8542,85
371,77	8261,05
371,975	8059,73
372,18	8036,18
372,385	7965,32
372,59	7539,75
372,795	7314,68
373	7128,93
373,205	7077,93
373,41	6986,59
373,615	7188,73
373,82	6868,43
374,025	6949,32
374,23	6817,64
374,435	7073,02
374,64	7229,07
374,845	7558,39
375,05	7796,16
375,254	8013,86
375,459	8020,2
375,664	8017,95
375,869	7929,07
376,074	8319,21
376,279	8309,58
376,483	8585,24
376,688	8687,43
376,893	9200,45
377,098	9471,39
377,303	9677,01
377,507	9879,76
377,712	10106,47
377,917	9695,65
378,122	9604,92
378,326	9169,73
378,531	8745,18
378,736	8482,64
378,94	8236,88
379,145	8246,3
379,35	8196,33
379,554	8320,64
379,759	8441,47
379,964	8490,62
380,168	8638,08
380,373	8659,99
380,578	8698,9
380,782	8471,58
380,987	8091,47
381,191	7483,84
381,396	7189,75
381,601	6961,61
381,805	6626,15
382,01	6125,42
382,214	5756,17
382,419	5581,48
382,623	5389,79
382,828	5289,44
383,032	5450,82
383,237	5414,78
383,441	5768,46
383,646	6168,64
383,85	6701,31
384,055	6893,62
384,259	7313,45
384,464	7414,41
384,668	7403,56
384,872	7200,81
385,077	7257,95
385,281	7214,33
385,486	7286,83
385,69	7311,81
385,894	7614,3
386,099	7334,95
386,303	7438,79
386,507	7542
386,712	7418,92
386,916	7450,46
387,12	7461,52
387,325	7479,95
387,529	7423,02
387,733	7244,84
387,937	7693,35
388,142	7356,46
388,346	7866,81
388,55	7962,25
388,754	8339,07
388,959	8508,64
389,163	8892,23
389,367	8937,08
389,571	9136,55
389,775	9250,21
389,98	9397,26
390,184	9364,08
390,388	9872,39
390,592	9627,45
390,796	9924,41
391	9661,24
391,204	9599,8
391,409	9217,04
391,613	8843,69
391,817	8290,54
392,021	7744,96
392,225	6927,61
392,429	6122,15
392,633	5593,57
392,837	5369,72
393,041	5263,23
393,245	5708,87
393,449	6072,79
393,653	6718,52
393,857	7279,66
394,061	8110,52
394,265	8540,8
394,469	9191,44
394,673	9200,65
394,877	9514,61
395,081	9801,32
395,285	8995,45
395,489	8355,46
395,693	7884,63
395,896	7076,09
396,1	6457,81
396,304	6433,64
396,508	6362,17
396,712	6694,35
396,916	7482,82
397,12	8430,82
397,323	9140,24
397,527	9982,57
397,731	10733,56
397,935	10889,61
398,139	11609,47
398,342	12064,94
398,546	12132,53
398,75	12342,85
398,954	12700,02
399,157	12367,84
399,361	12613,39
399,565	12708
399,769	12845,63
399,972	12957,04
400,176	13183,54
400,38	13083,81
400,583	13436,26
400,787	13850,16
400,991	13500,77
401,194	13659,7
401,398	14039,8
401,601	13754,52
401,805	13645,36
402,009	13965,46
402,212	13547,06
402,416	13720,93
402,619	13849,75
402,823	13442,41
403,026	13574,7
403,23	13259,73
403,433	13626,72
403,637	13109,41
403,841	13332,02
404,044	13660,11
404,247	13903,81
404,451	13595,18
404,654	13370,52
404,858	13641,88
405,061	13364,79
405,265	13260,14
405,468	13650,48
405,672	13034,25
405,875	12735,04
406,078	13316,25
406,282	13227,37
406,485	12922,63
406,689	13739,36
406,892	13662,36
407,095	13205,46
407,299	13345,13
407,502	13783,8
407,705	14140,56
407,909	14376,89
408,112	14757,82
408,315	15008,08
408,518	14668,12
408,722	13951,33
408,925	13951,74
409,128	13813,7
409,331	13687,75
409,535	13626,52
409,738	13616,69
409,941	13778,89
410,144	13811,86
410,347	14452,46
410,551	14375,67
410,754	14795,7
410,957	14980,84
411,16	15113,55
411,363	15052,72
411,566	15375,69
411,769	15408,66
411,973	15352,75
412,176	14989,85
412,379	15551,81
412,582	15205,09
412,785	15014,02
412,988	15555,09
413,191	14992,92
413,394	14917,35
413,597	15199,56
413,8	15322,03
414,003	15514,54
414,206	15104,13
414,409	15616,12
414,612	14862,26
414,815	15177,85
415,018	15203,04
415,221	15442,86
415,424	15555,3
415,627	15659,33
415,83	15486,89
416,033	15400,26
416,235	15729,17
416,438	15654,62
416,641	14879,26
416,844	15033,47
417,047	15025,69
417,25	14657,88
417,453	14976,33
417,655	14635,35
417,858	15064,19
418,061	14659,51
418,264	14493,83
418,467	14881,31
418,669	14664,84
418,872	14916,12
419,075	14747,37
419,278	14592,95
419,48	14841,78
419,683	15107,2
419,886	14953,4
420,089	16143,06
420,291	15346,61
420,494	15849,59
420,697	15415,21
420,899	15737,36
421,102	14774
421,305	15186,05
421,507	14630,43
421,71	14932,71
421,912	14795,09
422,115	14837,07
422,318	14137,9
422,52	14564,9
422,723	14915,1
422,925	15075,46
423,128	14695,56
423,33	14766,21
423,533	14489,94
423,735	14994,56
423,938	15016,07
424,14	14943,16
424,343	14544,62
424,545	15200,59
424,748	14524,96
424,95	14515,95
425,153	15319,37
425,355	14993,74
425,558	15367,5
425,76	14682,04
425,962	14403,31
426,165	14080,55
426,367	15056,82
426,57	14914,9
426,772	14354,37
426,974	14607,7
427,177	14210,8
427,379	14478,06
427,581	14517,59
427,784	14878,24
427,986	13506,1
428,188	14267,12
428,39	14397,78
428,593	13525,76
428,795	13897,26
428,997	13238,22
429,2	12376,03
429,402	12276,7
429,604	11944,32
429,806	11374,98
430,008	11657,4
430,211	12009,85
430,413	12556,25
430,615	13165,73
430,817	14438,33
431,019	14921,04
431,221	15125,63
431,423	14838,1
431,626	15132,19
431,828	15151,23
432,03	15405,18
432,232	15466,82
432,434	16181,56
432,636	16405
432,838	15400,06
433,04	15101,88
433,242	15514,34
433,444	14817,82
433,646	15121,74
433,848	15785,28
434,05	16047,83
434,252	15778,52
434,454	15860,44
434,656	16408,27
434,858	16751,31
435,06	17042,12
435,262	17003,62
435,464	17880,56
435,666	17779,59
435,868	17161,11
436,07	17868,27
436,271	18277,05
436,473	17427,14
436,675	17427,14
436,877	16889,96
437,079	16134,87
437,281	16437,77
437,482	16532,18
437,684	16653,01
437,886	15954,03
438,088	15912,87
438,29	16041,07
438,491	16541,19
438,693	16395,37
438,895	16931,12
439,097	18011,01
439,298	16746,8
439,5	16907,57
439,702	16912,07
439,903	16610,61
440,105	17568,04
440,307	18137,99
440,508	18180,38
440,71	18707,32
440,912	18210,08
441,113	18072,66
441,315	18528,13
441,517	18822,83
441,718	19109,55
441,92	18832,25
442,121	18296,91
442,323	18802,15
442,524	18777,57
442,726	18931,58
442,928	18648,55
443,129	19199,45
443,331	18027,4
443,532	18760,37
443,734	18827,95
443,935	19240,62
444,136	17859,47
444,338	18760,16
444,539	18457,27
444,741	18099,28
444,942	17528,1
445,144	17848,2
445,345	18350,98
445,546	18371,66
445,748	17885,47
445,949	17802,12
446,151	18365,31
446,352	18885,29
446,553	18791,29
446,755	18405,45
446,956	19509,92
447,157	19371,89
447,359	18965,16
447,56	19106,06
447,761	19252,9
447,962	19525,9
448,164	19788,24
448,365	18498,64
448,566	19327,86
448,767	19057,94
448,969	19897,4
449,17	19588,57
449,371	19271,13
449,572	19995,09
449,773	20254,56
449,974	20230,19
450,176	20476,56
450,377	20954,77
