Data from Subt14__0__10-03-53-564.txt Node

Date: Mon Feb 19 10:03:53 CET 2024
User: Versuch 234
Spectrometer: USB4F03543
Trigger mode: 4
Integration Time (sec): 1,000000E-1
Scans to average: 10
Electric dark correction enabled: true
Nonlinearity correction enabled: false
Boxcar width: 0
XAxis mode: Wavelengths
Number of Pixels in Spectrum: 3648
>>>>>Begin Spectral Data<<<<<
179,969	-40,28
180,181	-40,28
180,394	-40,28
180,606	4,37
180,819	5,6
181,031	-19,39
181,243	-5,87
181,456	-10,99
181,668	10,51
181,88	6,42
182,093	10,72
182,305	7,44
182,518	6,21
182,73	14,2
182,942	-0,14
183,155	-28,81
183,367	9,69
183,579	-2,59
183,791	-13,24
184,004	-12,22
184,216	25,87
184,428	-4,64
184,641	17,07
184,853	-0,14
185,065	6,62
185,277	-30,65
185,49	3,96
185,702	-25,12
185,914	-5,87
186,126	-7,92
186,338	-25,33
186,551	-11,81
186,763	6,83
186,975	16,25
187,187	6,83
187,399	13,79
187,612	2,94
187,824	3,14
188,036	-8,94
188,248	-2,39
188,46	-4,64
188,672	-27,17
188,885	-28,81
189,097	6,21
189,309	-47,04
189,521	-21,44
189,733	1,09
189,945	-1,16
190,157	11,33
190,369	12,36
190,581	-25,12
190,794	8,06
191,006	1,71
191,218	-24,92
191,43	-13,45
191,642	-0,55
191,854	-11,2
192,066	-3,82
192,278	-16,73
192,49	7,65
192,702	-20,21
192,914	12,56
193,126	-28,6
193,338	-17,54
193,55	-16,93
193,762	-15,29
193,974	-25,94
194,186	-13,86
194,398	-24,71
194,61	-25,12
194,822	4,37
195,034	16,04
195,246	-14,88
195,457	17,89
195,669	-15,7
195,881	-6,69
196,093	3,35
196,305	6,62
196,517	10,51
196,729	-17,34
196,941	-16,52
197,153	-36,39
197,365	-12,83
197,576	0,68
197,788	-12,83
198	-25,94
198,212	-7,92
198,424	-8,53
198,636	-28,6
198,847	7,65
199,059	13,79
199,271	-11,2
199,483	-19,18
199,695	-6,49
199,906	-43,35
200,118	-15,91
200,33	25,46
200,542	5,19
200,753	-5,05
200,965	-10,58
201,177	-24,92
201,389	-31,68
201,6	17,68
201,812	-4,44
202,024	25,05
202,235	-17,54
202,447	-9,15
202,659	-22,66
202,871	9,69
203,082	-7,1
203,294	-9,15
203,506	-6,28
203,717	-20,62
203,929	-21,03
204,141	-8,94
204,352	24,03
204,564	-31,27
204,775	-1,57
204,987	0,07
205,199	-30,24
205,41	2,32
205,622	0,27
205,833	3,14
206,045	-5,05
206,257	-6,28
206,468	-20
206,68	-3,82
206,891	-37
207,103	-16,32
207,314	5,8
207,526	12,97
207,737	-1,16
207,949	-7,51
208,16	-6,08
208,372	-17,13
208,583	-4,64
208,795	-1,57
209,006	4,16
209,218	5,19
209,429	25,05
209,641	-1,37
209,852	-24,3
210,064	-25,33
210,275	22,8
210,487	11,74
210,698	-5,87
210,909	-8,94
211,121	-24,51
211,332	-4,23
211,544	-9,35
211,755	-10,58
211,966	9,49
212,178	11,13
212,389	7,03
212,6	18,91
212,812	-12,42
213,023	4,57
213,234	15,02
213,446	23,01
213,657	4,57
213,868	-12,01
214,08	-1,57
214,291	6,42
214,502	12,36
214,714	-40,28
214,925	24,64
215,136	17,07
215,347	-2,8
215,559	-11,4
215,77	-18,36
215,981	-24,71
216,192	-11,2
216,404	-12,22
216,615	-25,53
216,826	-9,76
217,037	-10,79
217,249	4,16
217,46	1,09
217,671	17,27
217,882	-11,81
218,093	-2,39
218,304	-13,45
218,516	-35,77
218,727	-18,57
218,938	-26,96
219,149	-0,55
219,36	-11,4
219,571	5,8
219,782	19,11
219,993	-22,05
220,205	-20,82
220,416	14,4
220,627	-23,07
220,838	5,19
221,049	-10,17
221,26	13,18
221,471	-21,85
221,682	-9,35
221,893	4,98
222,104	-20,62
222,315	-9,97
222,526	-13,86
222,737	3,14
222,948	3,75
223,159	7,65
223,37	-29,22
223,581	1,09
223,792	-30,86
224,003	-13,24
224,214	15,22
224,425	-1,57
224,636	18,3
224,847	-3,21
225,058	-6,28
225,269	23,21
225,48	-8,33
225,691	3,14
225,902	-3,21
226,112	-16,52
226,323	-13,86
226,534	-13,24
226,745	-22,46
226,956	20,96
227,167	-27,37
227,378	-3,21
227,589	-4,44
227,799	4,16
228,01	18,3
228,221	-11,81
228,432	11,95
228,643	-38,64
228,853	-18,98
229,064	12,36
229,275	14,81
229,486	-3,41
229,697	-15,29
229,907	-16,93
230,118	-29,01
230,329	4,98
230,54	1,91
230,75	-9,97
230,961	-14,27
231,172	-11,81
231,383	-1,98
231,593	13,99
231,804	28,33
232,015	-30,45
232,225	-7,3
232,436	6,01
232,647	-29,42
232,857	-18,36
233,068	-1,37
233,279	-12,22
233,489	-9,97
233,7	-10,17
233,91	-0,14
234,121	-1,98
234,332	-3,82
234,542	36,11
234,753	10,31
234,964	-0,96
235,174	2,12
235,385	4,57
235,595	-8,33
235,806	-13,65
236,016	-6,28
236,227	19,73
236,437	1,91
236,648	33,25
236,858	-2,59
237,069	-1,16
237,279	4,57
237,49	20,96
237,7	-9,97
237,911	-30,24
238,121	-24,92
238,332	-3,21
238,542	-6,89
238,753	23,21
238,963	-5,87
239,174	13,38
239,384	-25,12
239,595	30,38
239,805	14,2
240,015	21,57
240,226	-23,69
240,436	16,04
240,647	-10,58
240,857	25,46
241,067	-22,46
241,278	-24,1
241,488	-6,89
241,698	-16,32
241,909	-8,74
242,119	-4,03
242,329	-16,52
242,54	-19,18
242,75	-22,25
242,96	7,24
243,171	-21,23
243,381	-5,46
243,591	-31,88
243,801	24,44
244,012	0,68
244,222	-16,32
244,432	-3,41
244,642	4,37
244,853	-13,86
245,063	-7,92
245,273	-3,82
245,483	12,15
245,694	-16,52
245,904	-3
246,114	9,49
246,324	-4,03
246,534	-2,39
246,744	20,14
246,955	20,34
247,165	-5,46
247,375	6,21
247,585	6,21
247,795	-27,17
248,005	9,49
248,215	-7,1
248,425	0,68
248,636	13,79
248,846	-10,99
249,056	21,78
249,266	-28,4
249,476	12,97
249,686	-22,46
249,896	-8,53
250,106	0,89
250,316	-9,35
250,526	22,6
250,736	-4,23
250,946	-15,91
251,156	-18,36
251,366	-18,16
251,576	2,73
251,786	1,09
251,996	7,65
252,206	-6,28
252,416	-3,41
252,626	-2,59
252,836	25,87
253,046	-13,24
253,256	-12,63
253,466	12,56
253,676	-11,61
253,885	-18,57
254,095	-5,05
254,305	-7,1
254,515	-19,59
254,725	14,61
254,935	-10,58
255,145	-0,55
255,355	5,6
255,564	-4,64
255,774	0,27
255,984	-13,65
256,194	-13,65
256,404	-19,18
256,614	12,15
256,823	-35,77
257,033	5,8
257,243	37,75
257,453	3,35
257,662	-0,75
257,872	2,32
258,082	11,74
258,292	1,5
258,501	-8,33
258,711	1,91
258,921	-28,81
259,131	31,2
259,34	-24,92
259,55	18,09
259,76	-19,8
259,969	-1,16
260,179	4,78
260,389	-13,45
260,598	-14,68
260,808	10,31
261,018	0,07
261,227	0,27
261,437	-12,83
261,647	3,75
261,856	-9,97
262,066	4,37
262,275	-26,35
262,485	-3,82
262,694	0,68
262,904	10,51
263,114	10,92
263,323	0,68
263,533	32,63
263,742	-11,4
263,952	-44,78
264,161	-0,96
264,371	-29,42
264,58	-5,46
264,79	16,25
264,999	-4,64
265,209	10,92
265,418	-4,03
265,628	-8,12
265,837	10,31
266,047	-23,89
266,256	5,8
266,466	-6,89
266,675	-34,95
266,884	7,44
267,094	-27,37
267,303	-31,88
267,513	31,4
267,722	-2,59
267,931	-9,97
268,141	5,8
268,35	-1,57
268,559	6,83
268,769	7,85
268,978	2,53
269,187	-10,17
269,397	-11,2
269,606	-1,77
269,815	26,49
270,025	-6,69
270,234	17,89
270,443	-7,71
270,653	-8,94
270,862	-5,05
271,071	2,94
271,28	3,35
271,49	13,79
271,699	-7,92
271,908	12,56
272,117	-20,62
272,327	1,5
272,536	-18,36
272,745	-12,83
272,954	-21,44
273,163	31,4
273,372	33,04
273,582	6,62
273,791	-18,36
274	-14,68
274,209	-14,06
274,418	-7,1
274,627	-34,13
274,836	-16,93
275,046	-3,21
275,255	13,79
275,464	10,51
275,673	-5,87
275,882	-0,55
276,091	0,68
276,3	-1,37
276,509	-1,16
276,718	-1,57
276,927	9,08
277,136	-25,74
277,345	0,48
277,554	-13,24
277,763	2,12
277,972	-3,41
278,181	-0,75
278,39	7,44
278,599	4,57
278,808	-3,41
279,017	-23,48
279,226	-12,63
279,435	23,01
279,644	-15,91
279,853	-52,97
280,062	3,14
280,271	8,46
280,48	-9,97
280,688	-0,96
280,897	-9,15
281,106	-5,87
281,315	16,86
281,524	-10,79
281,733	-8,94
281,942	12,15
282,151	16,25
282,359	25,05
282,568	-21,44
282,777	-16,93
282,986	0,07
283,195	-9,15
283,403	9,08
283,612	5,8
283,821	2,94
284,03	-59,94
284,238	-1,16
284,447	-2,59
284,656	-2,18
284,865	-24,1
285,073	-14,27
285,282	7,03
285,491	-13,24
285,699	0,48
285,908	-24,1
286,117	11,33
286,325	-37,82
286,534	-20,21
286,743	-6,28
286,951	10,51
287,16	15,22
287,369	3,35
287,577	6,01
287,786	-4,23
287,995	-9,97
288,203	16,45
288,412	29,35
288,62	-14,68
288,829	20,75
289,037	-13,86
289,246	10,51
289,455	4,16
289,663	33,86
289,872	12,15
290,08	-8,94
290,289	24,85
290,497	2,73
290,706	6,01
290,914	-20,82
291,123	-19,39
291,331	8,06
291,54	-4,03
291,748	-6,49
291,957	-24,3
292,165	0,68
292,373	-36,8
292,582	-2,18
292,79	-1,37
292,999	2,53
293,207	-3,62
293,415	-7,1
293,624	0,68
293,832	-8,33
294,041	-7,1
294,249	2,94
294,457	-5,87
294,666	9,28
294,874	-35,16
295,082	-4,44
295,291	6,21
295,499	5,39
295,707	-13,04
295,915	-2,39
296,124	23,21
296,332	15,02
296,54	12,15
296,749	16,25
296,957	12,36
297,165	-14,06
297,373	-17,13
297,581	26,69
297,79	-25,12
297,998	-19,39
298,206	-3
298,414	12,56
298,622	-27,78
298,831	12,97
299,039	-11,4
299,247	-8,33
299,455	-1,77
299,663	-20
299,871	4,78
300,08	0,48
300,288	2,12
300,496	-4,23
300,704	14,2
300,912	3,75
301,12	-17,13
301,328	2,53
301,536	7,24
301,744	3,96
301,952	12,36
302,16	-8,53
302,368	-17,75
302,576	2,73
302,784	-1,57
302,992	10,92
303,2	10,51
303,408	-21,84
303,616	18,7
303,824	-34,34
304,032	-9,97
304,24	21,16
304,448	-8,74
304,656	3,35
304,864	8,87
305,072	-12,42
305,28	19,73
305,488	18,09
305,696	-12,22
305,904	5,8
306,111	-1,98
306,319	-25,74
306,527	4,37
306,735	16,45
306,943	-3,41
307,151	-2,39
307,359	8,26
307,566	5,39
307,774	-43,14
307,982	-15,7
308,19	-9,15
308,398	-13,45
308,605	-10,99
308,813	-24,92
309,021	19,11
309,229	2,94
309,436	-5,87
309,644	-7,71
309,852	40,62
310,06	7,85
310,267	-15,5
310,475	21,98
310,683	-5,67
310,89	-6,69
311,098	5,19
311,306	10,51
311,513	-33,11
311,721	7,85
311,929	22,6
312,136	11,74
312,344	-24,1
312,552	-18,98
312,759	15,63
312,967	-3
313,174	-14,27
313,382	11,13
313,589	-27,58
313,797	-13,04
314,005	25,67
314,212	0,27
314,42	-25,33
314,627	8,46
314,835	-22,87
315,042	30,38
315,25	30,17
315,457	-27,17
315,665	-14,47
315,872	12,77
316,08	-1,77
316,287	-41,1
316,495	39,39
316,702	6,42
316,909	28,13
317,117	-18,16
317,324	-11,2
317,532	-8,12
317,739	-20
317,946	9,49
318,154	-18,36
318,361	-13,45
318,569	8,06
318,776	5,39
318,983	-10,99
319,191	-10,38
319,398	1,91
319,605	3,14
319,813	-2,8
320,02	-15,09
320,227	-4,03
320,434	9,49
320,642	18,7
320,849	15,84
321,056	-31,06
321,264	-27,78
321,471	-12,22
321,678	-10,79
321,885	3,55
322,092	10,92
322,3	29,15
322,507	1,09
322,714	-16,11
322,921	-12,01
323,128	-12,01
323,336	-50,72
323,543	19,73
323,75	0,27
323,957	0,07
324,164	-24,3
324,371	-9,97
324,578	-6,89
324,786	-15,91
324,993	-23,48
325,2	-3,62
325,407	-21,85
325,614	4,98
325,821	3,96
326,028	-1,37
326,235	4,98
326,442	8,26
326,649	-15,09
326,856	12,97
327,063	-3
327,27	6,21
327,477	-18,57
327,684	-18,57
327,891	-9,15
328,098	-8,74
328,305	11,54
328,512	1,91
328,719	11,54
328,926	7,65
329,133	-33,72
329,34	7,03
329,546	-40,69
329,753	4,78
329,96	-7,71
330,167	3,14
330,374	4,78
330,581	-22,66
330,788	-34,75
330,995	-9,76
331,201	6,01
331,408	-6,49
331,615	20,96
331,822	-13,04
332,029	2,12
332,235	11,13
332,442	-41,1
332,649	16,04
332,856	-13,04
333,062	-4,85
333,269	-41,71
333,476	-17,75
333,683	24,64
333,889	-13,45
334,096	0,89
334,303	-5,87
334,509	-30,65
334,716	-6,89
334,923	-5,87
335,129	-16,93
335,336	32,43
335,543	-15,7
335,749	-1,77
335,956	-0,14
336,163	-2,18
336,369	-18,36
336,576	-28,19
336,782	-26,76
336,989	5,6
337,196	3,55
337,402	-5,05
337,609	8,67
337,815	-7,92
338,022	-52,36
338,228	-7,1
338,435	-18,36
338,641	-3
338,848	-23,07
339,054	-35,57
339,261	-22,05
339,467	-14,47
339,674	-0,14
339,88	-3,82
340,087	37,96
340,293	-5,46
340,5	-18,98
340,706	-13,24
340,912	-0,75
341,119	-1,77
341,325	0,68
341,532	-16,73
341,738	-18,16
341,944	-10,99
342,151	10,72
342,357	3,55
342,563	8,87
342,77	-39,66
342,976	-21,85
343,182	-13,45
343,389	-52,15
343,595	-14,68
343,801	4,98
344,007	-3,21
344,214	-39,25
344,42	17,89
344,626	-31,88
344,832	14,61
345,039	6,83
345,245	-14,06
345,451	-17,75
345,657	-28,4
345,864	-0,55
346,07	-9,15
346,276	-30,65
346,482	-9,97
346,688	-29,63
346,894	-16,93
347,1	-24,71
347,307	7,03
347,513	-22,66
347,719	-9,15
347,925	-32,9
348,131	5,8
348,337	-27,58
348,543	-20,62
348,749	12,36
348,955	-9,35
349,161	-9,97
349,367	-25,33
349,573	-36,18
349,779	-1,57
349,985	5,19
350,191	-6,89
350,397	8,67
350,603	-22,05
350,809	-10,79
351,015	-40,07
351,221	-25,74
351,427	3,14
351,633	2,12
351,839	-18,77
352,045	3,35
352,251	12,36
352,457	12,15
352,663	-3
352,869	-20,41
353,075	-25,12
353,28	13,38
353,486	-22,66
353,692	1,3
353,898	-16,93
354,104	-10,79
354,31	-26,15
354,515	-5,26
354,721	-3
354,927	-16,52
355,133	-15,7
355,339	-24,1
355,544	-28,4
355,75	8,46
355,956	7,65
356,162	-16,73
356,367	-23,48
356,573	1,91
356,779	30,58
356,984	-19,59
357,19	5,8
357,396	-31,47
357,602	-25,94
357,807	-4,44
358,013	-9,15
358,218	-32,29
358,424	3,96
358,63	-20,21
358,835	-7,92
359,041	-3,82
359,247	-0,55
359,452	-37,82
359,658	-2,59
359,863	-18,77
360,069	-40,48
360,274	-11,81
360,48	-31,68
360,685	-40,89
360,891	-11,2
361,097	-28,81
361,302	-24,71
361,508	-12,22
361,713	-14,27
361,918	19,93
362,124	18,7
362,329	17,27
362,535	-24,71
362,74	-12,01
362,946	7,85
363,151	18,91
363,357	-29,63
363,562	-27,99
363,767	-30,65
363,973	-11,61
364,178	-12,63
364,383	-13,65
364,589	-10,79
364,794	-16,93
365	15,43
365,205	-23,89
365,41	-6,69
365,615	-14,06
365,821	-1,57
366,026	-3,82
366,231	3,96
366,437	-12,63
366,642	6,62
366,847	-5,46
367,052	9,28
367,258	-8,74
367,463	-44,78
367,668	-12,22
367,873	-8,94
368,078	-19,18
368,284	-5,26
368,489	-14,68
368,694	16,86
368,899	1,3
369,104	-41,71
369,309	-0,34
369,515	-14,88
369,72	-27,99
369,925	-18,16
370,13	-19,39
370,335	-12,01
370,54	2,32
370,745	-22,05
370,95	-8,12
371,155	-8,12
371,36	-41,71
371,565	-8,12
371,77	-45,4
371,975	-29,63
372,18	-27,99
372,385	-21,23
372,59	-9,97
372,795	-8,74
373	-7,3
373,205	-20,82
373,41	-41,71
373,615	-12,01
373,82	18,3
374,025	6,42
374,23	-15,29
374,435	-26,15
374,64	-13,65
374,845	-5,87
375,05	-36,39
375,254	-24,1
375,459	-20
375,664	-18,98
375,869	-41,3
376,074	-5,26
376,279	-21,03
376,483	-20,62
376,688	4,57
376,893	-14,68
377,098	-3,62
377,303	-27,78
377,507	-35,77
377,712	-26,15
377,917	-1,77
378,122	-27,99
378,326	6,01
378,531	-5,67
378,736	-47,65
378,94	-8,94
379,145	3,75
379,35	-13,04
379,554	-28,19
379,759	-5,67
379,964	-26,76
380,168	-7,92
380,373	-51,34
380,578	-15,7
380,782	-6,89
380,987	-6,69
381,191	-6,49
381,396	0,07
381,601	-46,22
381,805	-23,07
382,01	-28,19
382,214	4,98
382,419	-5,05
382,623	25,46
382,828	6,01
383,032	17,07
383,237	-37,41
383,441	-32,29
383,646	-16,11
383,85	-11,81
384,055	-12,42
384,259	3,75
384,464	-30,24
384,668	3,55
384,872	7,24
385,077	-22,87
385,281	-30,24
385,486	-20,62
385,69	-10,38
385,894	1,3
386,099	-12,22
386,303	-24,92
386,507	-26,56
386,712	-15,29
386,916	-0,96
387,12	-19,8
387,325	-18,16
387,529	7,65
387,733	-5,05
387,937	-1,77
388,142	-29,01
388,346	-3,21
388,55	-4,44
388,754	27,72
388,959	-3,21
389,163	-23,28
389,367	-25,94
389,571	-23,28
389,775	10,31
389,98	-17,34
390,184	-4,03
390,388	19,32
390,592	2,12
390,796	-24,1
391	-17,34
391,204	-31,47
391,409	-14,27
391,613	-22,25
391,817	-30,65
392,021	-19,18
392,225	2,73
392,429	23,82
392,633	-4,85
392,837	-12,01
393,041	8,87
393,245	13,38
393,449	-23,89
393,653	-13,24
393,857	16,86
394,061	-14,27
394,265	-3,62
394,469	3,14
394,673	-0,96
394,877	-9,76
395,081	5,39
395,285	-25,12
395,489	-24,51
395,693	4,37
395,896	2,32
396,1	-18,16
396,304	8,06
396,508	-14,68
396,712	-8,74
396,916	22,19
397,12	-3,41
397,323	-5,87
397,527	4,78
397,731	-6,69
397,935	9,69
398,139	16,45
398,342	11,33
398,546	-0,75
398,75	-4,03
398,954	-40,28
399,157	16,45
399,361	-16,93
399,565	3,96
399,769	-2,18
399,972	-0,75
400,176	34,88
400,38	-22,05
400,583	20,14
400,787	1,3
400,991	5,19
401,194	-0,14
401,398	-5,05
401,601	-15,29
401,805	40,62
402,009	14,81
402,212	-3,21
402,416	19,32
402,619	-9,97
402,823	3,35
403,026	9,49
403,23	17,68
403,433	-4,44
403,637	21,98
403,841	33,65
404,044	19,73
404,247	-1,77
404,451	2,32
404,654	22,6
404,858	12,15
405,061	0,68
405,265	7,85
405,468	47,58
405,672	-2,8
405,875	9,9
406,078	-15,09
406,282	27,92
406,485	11,13
406,689	-2,8
406,892	39,39
407,095	16,86
407,299	20,14
407,502	17,07
407,705	1,91
407,909	29,76
408,112	22,8
408,315	21,78
408,518	-0,34
408,722	7,24
408,925	2,53
409,128	45,53
409,331	23,21
409,535	16,04
409,738	-5,67
409,941	21,57
410,144	33,65
410,347	31,2
410,551	60,07
410,754	25,67
410,957	20,14
411,16	28,33
411,363	55,98
411,566	39,59
411,769	32,43
411,973	-12,83
412,176	-7,51
412,379	20,14
412,582	4,16
412,785	13,79
412,988	25,05
413,191	30,17
413,394	6,83
413,597	24,44
413,8	40,62
414,003	24,03
414,206	45,33
414,409	27,51
414,612	21,37
414,815	25,46
415,018	10,72
415,221	52,7
415,424	24,85
415,627	6,62
415,83	33,86
416,033	12,97
416,235	31,61
416,438	37,14
416,641	40
416,844	52,5
417,047	19,73
417,25	26,08
417,453	24,44
417,655	22,39
417,858	40
418,061	32,84
418,264	38,16
418,467	28,94
418,669	4,16
418,872	10,1
419,075	-3,82
419,278	36,73
419,48	37,14
419,683	11,33
419,886	13,18
420,089	35,5
420,291	38,57
420,494	2,94
420,697	32,22
420,899	38,77
421,102	23,62
421,305	67,24
421,507	20,14
421,71	31,81
421,912	20,34
422,115	47,17
422,318	4,98
422,52	12,77
422,723	26,9
422,925	57,41
423,128	30,17
423,33	44,71
423,533	17,48
423,735	28,94
423,938	17,07
424,14	32,22
424,343	26,49
424,545	18,5
424,748	32,63
424,95	23,42
425,153	43,69
425,355	30,38
425,558	36,11
425,76	33,04
425,962	26,49
426,165	42,26
426,367	26,69
426,57	54,75
426,772	-4,03
426,974	37,55
427,177	42,67
427,379	38,77
427,581	46,56
427,784	57
427,986	13,58
428,188	45,94
428,39	15,02
428,593	14,81
428,795	24,85
428,997	45,12
429,2	1,5
429,402	15,22
429,604	10,72
429,806	30,58
430,008	17,68
430,211	-17,13
430,413	56,59
430,615	25,05
430,817	32,43
431,019	57,21
431,221	43,49
431,423	27,31
431,626	22,19
431,828	14,61
432,03	36,73
432,232	34,27
432,434	35,5
432,636	31,81
432,838	34,68
433,04	58,84
433,242	38,98
433,444	0,89
433,646	63,96
433,848	19,93
434,05	27,72
434,252	45,74
434,454	7,65
434,656	35,29
434,858	42,46
435,06	47,99
435,262	51,47
435,464	37,75
435,666	32,63
435,868	60,69
436,07	54,75
436,271	33,45
436,473	43,69
436,675	34,27
436,877	47,58
437,079	49,42
437,281	46,15
437,482	48,81
437,684	50,45
437,886	49,01
438,088	37,75
438,29	38,98
438,491	-0,96
438,693	11,74
438,895	0,89
439,097	53,32
439,298	27,31
439,5	38,16
439,702	37,75
439,903	74,61
440,105	17,07
440,307	29,56
440,508	32,63
440,71	45,53
440,912	18,09
441,113	42,87
441,315	29,97
441,517	28,33
441,718	54,75
441,92	46,56
442,121	34,27
442,323	58,84
442,524	60,89
442,726	38,77
442,928	42,05
443,129	43,69
443,331	47,38
443,532	29,56
443,734	36,73
443,935	60,69
444,136	48,61
444,338	66,42
444,539	63,56
444,741	57,21
444,942	24,03
445,144	33,45
445,345	48,4
445,546	57,21
445,748	33,45
445,949	60,48
446,151	46,56
446,352	53,93
446,553	23,62
446,755	22,6
446,956	48,4
447,157	43,69
447,359	43,69
447,56	52,91
447,761	70,93
447,962	34,68
448,164	64,37
448,365	9,08
448,566	53,11
448,767	55,57
448,969	91,2
449,17	54,95
449,371	21,16
449,572	32,63
449,773	43,69
449,974	43,69
450,176	33,86
450,377	54,95
450,578	50,04
450,779	28,33
450,98	54,34
451,181	61,92
451,382	44,3
451,583	47,99
451,784	43,28
451,986	70,11
452,187	54,54
452,388	46,35
452,589	51,27
452,79	37,14
452,991	45,74
453,192	62,74
453,393	32,02
453,594	63,15
453,795	53,93
453,995	23,62
454,196	25,46
454,397	91,41
454,598	42,67
454,799	27,51
455	67,86
455,201	56,39
455,402	68,27
455,603	72,36
455,804	41,85
456,004	20,55
456,205	45,53
456,406	70,11
456,607	51,68
456,808	80,55
457,008	53,52
457,209	58,44
457,41	36,52
457,611	52,7
457,811	61,92
458,012	78,1
458,213	49,22
458,414	63,96
458,614	52,91
458,815	18,91
459,016	35,5
459,216	64,58
459,417	53,73
459,618	60,48
459,818	50,24
460,019	59,25
460,22	52,7
460,42	64,58
460,621	57,21
460,821	48,61
461,022	16,66
461,223	57,21
461,423	71,75
461,624	27,31
461,824	72,16
462,025	75,02
462,225	70,52
462,426	61,51
462,626	47,17
462,827	19,32
463,027	50,45
463,228	51,06
463,428	52,5
463,628	28,13
463,829	63,15
464,029	57
464,23	67,24
464,43	58,64
464,63	58,44
464,831	71,95
465,031	61,3
465,231	52,29
465,432	55,77
465,632	41,44
465,832	61,1
466,033	50,65
466,233	27,1
466,433	52,29
466,634	57,62
466,834	51,68
467,034	60,48
467,234	70,72
467,435	70,31
467,635	91,61
467,835	60,28
468,035	62,74
468,235	52,91
468,436	72,57
468,636	77,69
468,836	51,47
469,036	38,57
469,236	49,22
469,436	68,68
469,636	79,32
469,836	70,11
470,037	48,2
470,237	69,7
470,437	71,34
470,637	67,24
470,837	72,77
471,037	71,95
471,237	85,88
471,437	88,54
471,637	55,57
